%OpenBCI Raw EEG Data
%
%Sample Rate = 250.0 Hz
%First Column = SampleIndex
%Last Column = Timestamp 
%Other Columns = EEG data in microvolts followed by Accel Data (in G) interleaved with Aux Data
0, 0.00, 0.00, 0.00, 0.00, 0.00, 0.00, 0.00, 0.00, 0.002, 0.980, 0.312, 16:37:53.324
1, -17239.77, -8004.83, -84174.48, -68509.30, 187500.00, -65624.67, -73047.58, -54306.60, 0.000, 0.000, 0.000, 16:37:53.785
2, -17128.01, -7856.28, -84120.02, -68459.16, 187500.00, -65566.72, -73000.62, -54243.61, 0.000, 0.000, 0.000, 16:37:53.786
3, -17272.62, -8102.98, -84132.66, -68480.06, 187500.00, -65586.25, -73032.96, -54257.67, 0.000, 0.000, 0.000, 16:37:53.788
4, -17288.94, -8166.12, -84084.06, -68426.31, 187500.00, -65534.95, -72971.73, -54202.98, 0.000, 0.000, 0.000, 16:37:53.790
5, -17201.07, -7988.31, -84109.23, -68439.84, 187500.00, -65547.74, -72968.48, -54215.41, 0.000, 0.000, 0.000, 16:37:53.793
6, -17112.81, -7829.57, -84113.84, -68452.35, 187500.00, -65566.91, -72983.70, -54228.28, 0.000, 0.000, 0.000, 16:37:53.793
7, -17133.66, -7948.66, -84018.80, -68370.81, 187500.00, -65475.45, -72928.91, -54160.53, -0.012, 0.982, 0.296, 16:37:53.794
8, -17161.58, -8044.04, -83952.37, -68299.51, 187500.00, -65401.25, -72849.34, -54085.54, 0.000, 0.000, 0.000, 16:37:53.794
9, -17098.44, -7911.78, -83983.01, -68318.09, 187500.00, -65427.73, -72839.88, -54096.50, 0.000, 0.000, 0.000, 16:37:53.795
10, -16989.05, -7713.16, -83999.95, -68336.30, 187500.00, -65449.68, -72869.30, -54119.45, 0.000, 0.000, 0.000, 16:37:53.795
11, -17040.79, -7840.19, -83965.55, -68316.09, 187500.00, -65422.57, -72870.87, -54095.51, 0.000, 0.000, 0.000, 16:37:53.797
12, -17100.20, -7982.37, -83904.24, -68251.25, 187500.00, -65362.91, -72811.99, -54031.36, 0.000, 0.000, 0.000, 16:37:53.797
13, -16986.63, -7823.31, -83841.52, -68175.73, 187500.00, -65289.20, -72715.77, -53964.35, 0.000, 0.000, 0.000, 16:37:53.798
14, -16889.65, -7617.14, -83885.02, -68217.39, 187500.00, -65329.77, -72747.13, -54011.96, 0.000, 0.000, 0.000, 16:37:53.798
15, -16980.87, -7755.76, -83931.85, -68277.45, 187500.00, -65395.19, -72822.85, -54067.80, 0.000, 0.000, 0.000, 16:37:53.799
16, -17092.80, -7971.44, -83908.42, -68251.74, 187500.00, -65373.06, -72811.52, -54042.61, 0.000, 0.000, 0.000, 16:37:53.799
17, -17027.09, -7879.73, -83857.59, -68189.07, 187500.00, -65307.28, -72747.15, -53985.59, -0.012, 0.986, 0.290, 16:37:53.800
18, -16872.64, -7613.67, -83849.33, -68176.44, 187500.00, -65288.15, -72719.92, -53973.18, 0.000, 0.000, 0.000, 16:37:53.800
19, -16887.95, -7642.75, -83858.52, -68195.70, 187500.00, -65313.54, -72742.27, -53991.96, 0.000, 0.000, 0.000, 16:37:53.800
20, -16934.20, -7795.86, -83756.59, -68099.39, 187500.00, -65218.12, -72667.98, -53898.91, 0.000, 0.000, 0.000, 16:37:53.801
21, -16966.65, -7827.94, -83776.93, -68113.23, 187500.00, -65227.02, -72661.70, -53908.27, 0.000, 0.000, 0.000, 16:37:53.801
22, -16840.83, -7592.37, -83795.50, -68122.68, 187500.00, -65238.13, -72649.98, -53915.89, 0.000, 0.000, 0.000, 16:37:53.802
23, -16780.77, -7515.04, -83763.27, -68098.70, 187500.00, -65212.15, -72640.15, -53886.16, 0.000, 0.000, 0.000, 16:37:53.802
24, -16883.55, -7728.36, -83722.84, -68062.13, 187500.00, -65175.27, -72621.98, -53848.82, 0.000, 0.000, 0.000, 16:37:53.803
25, -16880.55, -7753.69, -83672.84, -68003.91, 187500.00, -65111.97, -72555.15, -53791.73, 0.000, 0.000, 0.000, 16:37:53.803
26, -16743.85, -7521.85, -83666.47, -67989.66, 187500.00, -65108.44, -72527.43, -53780.87, 0.000, 0.000, 0.000, 16:37:53.803
27, -16648.90, -7384.03, -83650.04, -67975.12, 187500.00, -65101.82, -72526.13, -53769.24, -0.008, 0.986, 0.290, 16:37:53.804
28, -16742.73, -7580.12, -83612.22, -67946.44, 187500.00, -65061.43, -72511.00, -53734.91, 0.000, 0.000, 0.000, 16:37:53.804
29, -16844.21, -7728.23, -83641.86, -67974.71, 187500.00, -65093.22, -72537.09, -53761.75, 0.000, 0.000, 0.000, 16:37:53.804
30, -16768.37, -7566.40, -83669.46, -67991.50, 187500.00, -65111.10, -72548.38, -53793.52, 0.000, 0.000, 0.000, 16:37:53.805
31, -16555.13, -7280.61, -83563.83, -67890.56, 187500.00, -65004.55, -72439.72, -53691.10, 0.000, 0.000, 0.000, 16:37:53.805
32, -16634.14, -7450.60, -83542.50, -67879.70, 187500.00, -64995.65, -72453.31, -53676.89, 0.000, 0.000, 0.000, 16:37:53.805
33, -16675.68, -7563.96, -83480.63, -67810.48, 187500.00, -64933.36, -72388.58, -53613.81, 0.000, 0.000, 0.000, 16:37:53.806
34, -16612.89, -7436.29, -83497.58, -67815.66, 187500.00, -64940.78, -72373.43, -53616.71, 0.000, 0.000, 0.000, 16:37:53.806
35, -16466.87, -7199.18, -83481.62, -67800.26, 187500.00, -64926.56, -72358.27, -53603.37, 0.000, 0.000, 0.000, 16:37:53.806
36, -16520.87, -7320.13, -83461.77, -67793.20, 187500.00, -64913.31, -72372.17, -53590.99, 0.000, 0.000, 0.000, 16:37:53.806
37, -16685.40, -7575.94, -83506.36, -67831.26, 187500.00, -64952.16, -72395.89, -53619.48, -0.008, 0.980, 0.290, 16:37:53.807
38, -16597.09, -7447.38, -83459.42, -67770.87, 187500.00, -64899.29, -72314.28, -53565.30, 0.000, 0.000, 0.000, 16:37:53.807
39, -16439.51, -7182.55, -83435.88, -67746.99, 187500.00, -64875.87, -72303.73, -53554.02, 0.000, 0.000, 0.000, 16:37:53.807
40, -16426.63, -7211.52, -83385.33, -67711.73, 187500.00, -64839.82, -72287.77, -53517.03, 0.000, 0.000, 0.000, 16:37:53.808
41, -16565.46, -7456.92, -83393.71, -67726.37, 187500.00, -64857.47, -72304.56, -53525.45, 0.000, 0.000, 0.000, 16:37:53.808
42, -16541.01, -7421.20, -83387.52, -67714.12, 187500.00, -64846.57, -72271.32, -53512.73, 0.000, 0.000, 0.000, 16:37:53.808
43, -16401.26, -7169.68, -83395.59, -67716.06, 187500.00, -64853.50, -72258.20, -53519.11, 0.000, 0.000, 0.000, 16:37:53.809
44, -16375.18, -7152.33, -83375.16, -67706.63, 187500.00, -64822.71, -72271.14, -53515.02, 0.000, 0.000, 0.000, 16:37:53.809
45, -16503.28, -7394.49, -83366.46, -67701.82, 187500.00, -64816.46, -72275.08, -53499.32, 0.000, 0.000, 0.000, 16:37:53.809
46, -16452.09, -7355.76, -83291.23, -67617.87, 187500.00, -64739.48, -72177.40, -53417.09, 0.000, 0.000, 0.000, 16:37:53.809
47, -16357.72, -7152.38, -83342.63, -67658.82, 187500.00, -64784.88, -72197.77, -53455.04, -0.014, 0.982, 0.288, 16:37:53.810
48, -16302.07, -7073.68, -83332.42, -67658.59, 187500.00, -64779.46, -72214.48, -53449.55, 0.000, 0.000, 0.000, 16:37:53.810
49, -16390.49, -7276.54, -83279.42, -67617.35, 187500.00, -64735.16, -72186.37, -53405.85, 0.000, 0.000, 0.000, 16:37:53.810
50, -16408.19, -7332.38, -83243.84, -67579.42, 187500.00, -64699.56, -72133.70, -53367.07, 0.000, 0.000, 0.000, 16:37:53.811
51, -16336.26, -7161.10, -83293.20, -67618.09, 187500.00, -64743.75, -72155.02, -53408.42, 0.000, 0.000, 0.000, 16:37:53.811
52, -16229.02, -6994.26, -83263.24, -67594.83, 187500.00, -64720.55, -72140.12, -53381.77, 0.000, 0.000, 0.000, 16:37:53.811
53, -16300.66, -7170.04, -83209.30, -67553.14, 187500.00, -64679.46, -72115.38, -53336.76, 0.000, 0.000, 0.000, 16:37:53.812
54, -16352.07, -7282.04, -83175.58, -67515.77, 187500.00, -64641.42, -72074.83, -53306.50, 0.000, 0.000, 0.000, 16:37:53.812
55, -16254.88, -7109.06, -83177.86, -67503.74, 187500.00, -64626.98, -72046.35, -53301.33, 0.000, 0.000, 0.000, 16:37:53.812
56, -16147.01, -6921.87, -83193.28, -67518.29, 187500.00, -64647.61, -72056.50, -53311.57, 0.000, 0.000, 0.000, 16:37:53.812
57, -16182.93, -7043.73, -83129.40, -67470.19, 187500.00, -64604.25, -72035.18, -53275.02, -0.016, 0.990, 0.286, 16:37:53.813
58, -16266.46, -7203.70, -83101.99, -67440.46, 187500.00, -64561.43, -72005.31, -53238.63, 0.000, 0.000, 0.000, 16:37:53.813
59, -16233.09, -7110.65, -83138.80, -67458.57, 187500.00, -64589.70, -72015.40, -53252.65, 0.000, 0.000, 0.000, 16:37:53.813
60, -16097.64, -6879.53, -83139.52, -67453.88, 187500.00, -64586.75, -72006.52, -53250.44, 0.000, 0.000, 0.000, 16:37:53.814
61, -16068.78, -6915.63, -83042.31, -67371.73, 187500.00, -64503.15, -71945.95, -53169.81, 0.000, 0.000, 0.000, 16:37:53.815
62, -16166.14, -7108.79, -83006.11, -67337.35, 187500.00, -64479.02, -71912.80, -53136.89, 0.000, 0.000, 0.000, 16:37:53.816
63, -16179.91, -7085.41, -83054.81, -67377.03, 187500.00, -64525.21, -71935.47, -53174.39, 0.000, 0.000, 0.000, 16:37:53.817
64, -15987.02, -6779.10, -83007.16, -67319.85, 187500.00, -64465.09, -71879.81, -53129.36, 0.000, 0.000, 0.000, 16:37:53.818
65, -15932.35, -6757.25, -82931.65, -67250.45, 187500.00, -64386.32, -71823.17, -53062.86, 0.000, 0.000, 0.000, 16:37:53.819
66, -16026.74, -6964.62, -82884.67, -67209.16, 187500.00, -64341.10, -71797.31, -53018.74, 0.000, 0.000, 0.000, 16:37:53.827
67, -15979.91, -6911.27, -82839.38, -67159.19, 187500.00, -64293.74, -71737.67, -52965.52, -0.016, 0.990, 0.290, 16:37:53.827
68, -15884.92, -6698.62, -82889.34, -67202.44, 187500.00, -64332.14, -71766.33, -53019.88, 0.000, 0.000, 0.000, 16:37:53.827
69, -15893.97, -6701.14, -82919.65, -67240.48, 187500.00, -64371.01, -71807.86, -53048.11, 0.000, 0.000, 0.000, 16:37:53.828
70, -16039.86, -6963.48, -82926.22, -67249.65, 187500.00, -64382.88, -71834.03, -53055.44, 0.000, 0.000, 0.000, 16:37:53.828
71, -16071.40, -7017.98, -82928.91, -67241.69, 187500.00, -64381.83, -71816.40, -53048.91, 0.000, 0.000, 0.000, 16:37:53.828
72, -15992.14, -6830.67, -82980.20, -67286.68, 187500.00, -64426.71, -71843.51, -53091.96, 0.000, 0.000, 0.000, 16:37:53.828
73, -15971.19, -6773.16, -83015.31, -67332.02, 187500.00, -64470.30, -71895.48, -53133.80, 0.000, 0.000, 0.000, 16:37:53.829
74, -16074.28, -6983.76, -82973.43, -67298.77, 187500.00, -64433.59, -71880.34, -53098.71, 0.000, 0.000, 0.000, 16:37:53.829
75, -16052.60, -7004.48, -82875.15, -67193.84, 187500.00, -64328.56, -71769.26, -52997.08, 0.000, 0.000, 0.000, 16:37:53.829
76, -15970.68, -6829.73, -82911.54, -67218.45, 187500.00, -64353.38, -71768.48, -53021.33, -0.012, 0.986, 0.280, 16:37:53.831
77, -15847.10, -6639.90, -82884.27, -67195.31, 187500.00, -64333.82, -71753.21, -52997.64, 0.000, 0.000, 0.000, 16:37:53.831
78, -15848.57, -6743.90, -82760.86, -67084.45, 187500.00, -64228.38, -71664.32, -52887.42, 0.000, 0.000, 0.000, 16:37:53.832
79, -15915.18, -6882.24, -82732.21, -67057.45, 187500.00, -64197.40, -71634.63, -52860.49, 0.000, 0.000, 0.000, 16:37:53.833
80, -15817.70, -6712.43, -82727.31, -67039.49, 187500.00, -64175.19, -71597.98, -52856.71, 0.000, 0.000, 0.000, 16:37:53.833
81, -15707.55, -6510.41, -82744.50, -67052.51, 187500.00, -64189.20, -71613.22, -52870.23, 0.000, 0.000, 0.000, 16:37:53.834
82, -15772.93, -6655.46, -82717.39, -67034.20, 187500.00, -64176.26, -71619.16, -52853.00, 0.000, 0.000, 0.000, 16:37:53.834
83, -15800.18, -6771.95, -82624.36, -66938.38, 187500.00, -64086.90, -71525.85, -52756.57, 0.000, 0.000, 0.000, 16:37:53.834
84, -15668.04, -6594.23, -82553.82, -66853.80, 187500.00, -64001.29, -71426.07, -52661.07, 0.000, 0.000, 0.000, 16:37:53.834
85, -15568.35, -6388.33, -82595.64, -66892.16, 187500.00, -64039.78, -71468.60, -52701.37, 0.000, 0.000, 0.000, 16:37:53.835
86, -15677.20, -6546.02, -82647.78, -66954.70, 187500.00, -64103.93, -71550.62, -52766.12, -0.014, 0.996, 0.284, 16:37:53.835
87, -15753.73, -6724.68, -82577.00, -66889.76, 187500.00, -64051.02, -71483.58, -52695.51, 0.000, 0.000, 0.000, 16:37:53.835
88, -15687.77, -6638.15, -82535.89, -66837.50, 187500.00, -63997.73, -71414.34, -52651.48, 0.000, 0.000, 0.000, 16:37:53.835
89, -15566.80, -6404.98, -82567.05, -66858.34, 187500.00, -64016.87, -71431.63, -52685.09, 0.000, 0.000, 0.000, 16:37:53.836
90, -15542.98, -6402.34, -82533.27, -66836.54, 187500.00, -63995.55, -71423.70, -52661.07, 0.000, 0.000, 0.000, 16:37:53.836
91, -15628.50, -6603.76, -82474.98, -66784.53, 187500.00, -63944.58, -71391.73, -52608.27, 0.000, 0.000, 0.000, 16:37:53.836
92, -15639.11, -6613.68, -82476.64, -66775.97, 187500.00, -63937.70, -71371.20, -52600.65, 0.000, 0.000, 0.000, 16:37:53.836
93, -15528.58, -6389.65, -82515.41, -66811.87, 187500.00, -63975.77, -71393.86, -52641.44, 0.000, 0.000, 0.000, 16:37:53.837
94, -15462.58, -6311.66, -82505.38, -66806.50, 187500.00, -63972.41, -71402.60, -52640.30, 0.000, 0.000, 0.000, 16:37:53.837
95, -15534.95, -6509.14, -82442.53, -66755.25, 187500.00, -63918.75, -71360.11, -52578.50, 0.000, 0.000, 0.000, 16:37:53.837
96, -15532.99, -6547.00, -82373.26, -66683.32, 187500.00, -63845.43, -71274.15, -52505.34, -0.016, 0.992, 0.282, 16:37:53.837
97, -15414.79, -6328.81, -82384.55, -66683.12, 187500.00, -63845.23, -71256.73, -52509.25, 0.000, 0.000, 0.000, 16:37:53.838
98, -15384.17, -6253.26, -82435.55, -66742.09, 187500.00, -63906.14, -71323.70, -52565.98, 0.000, 0.000, 0.000, 16:37:53.838
99, -15433.30, -6418.95, -82356.72, -66675.41, 187500.00, -63844.98, -71271.71, -52492.02, 0.000, 0.000, 0.000, 16:37:53.838
100, -15420.00, -6462.16, -82266.02, -66582.20, 187500.00, -63751.53, -71175.53, -52400.73, 0.000, 0.000, 0.000, 16:37:53.838
101, -15358.58, -6309.83, -82312.35, -66618.99, 187500.00, -63781.50, -71198.75, -52443.34, 0.000, 0.000, 0.000, 16:37:53.839
102, -15282.54, -6158.55, -82352.36, -66667.07, 187500.00, -63831.21, -71255.95, -52494.01, 0.000, 0.000, 0.000, 16:37:53.839
103, -15266.29, -6248.52, -82230.63, -66565.03, 187500.00, -63732.73, -71167.91, -52387.21, 0.000, 0.000, 0.000, 16:37:53.839
104, -15339.53, -6400.78, -82206.41, -66542.05, 187500.00, -63709.11, -71127.36, -52360.52, 0.000, 0.000, 0.000, 16:37:53.839
105, -15310.25, -6301.54, -82275.77, -66597.84, 187500.00, -63765.17, -71162.54, -52415.40, 0.000, 0.000, 0.000, 16:37:53.840
106, -15166.04, -6057.41, -82268.97, -66589.29, 187500.00, -63750.19, -71158.77, -52404.76, -0.034, 0.994, 0.292, 16:37:53.840
107, -15200.30, -6165.46, -82225.27, -66563.42, 187500.00, -63731.19, -71145.80, -52376.73, 0.000, 0.000, 0.000, 16:37:53.840
108, -15214.21, -6280.97, -82110.63, -66453.23, 187500.00, -63625.24, -71035.27, -52264.57, 0.000, 0.000, 0.000, 16:37:53.840
109, -15172.07, -6193.98, -82125.76, -66456.92, 187500.00, -63625.58, -71015.27, -52271.83, 0.000, 0.000, 0.000, 16:37:53.841
110, -15064.00, -5971.92, -82179.96, -66502.07, 187500.00, -63665.07, -71047.45, -52317.07, 0.000, 0.000, 0.000, 16:37:53.841
111, -15082.04, -6034.81, -82160.79, -66496.48, 187500.00, -63653.72, -71066.34, -52307.66, 0.000, 0.000, 0.000, 16:37:53.841
112, -15172.12, -6233.68, -82107.27, -66444.63, 187500.00, -63606.67, -71022.04, -52252.48, 0.000, 0.000, 0.000, 16:37:53.841
113, -15142.48, -6179.21, -82092.39, -66417.58, 187500.00, -63581.10, -70971.66, -52217.05, 0.000, 0.000, 0.000, 16:37:53.841
114, -14989.03, -5901.87, -82092.14, -66412.82, 187500.00, -63572.11, -70971.01, -52217.05, 0.000, 0.000, 0.000, 16:37:53.842
115, -14940.62, -5859.93, -82046.99, -66377.88, 187500.00, -63526.05, -70953.73, -52181.96, 0.000, 0.000, 0.000, 16:37:53.842
116, -15015.39, -6048.74, -81971.20, -66304.75, 187500.00, -63459.82, -70894.21, -52113.29, -0.018, 0.976, 0.292, 16:37:53.842
117, -15069.37, -6100.62, -81997.87, -66323.75, 187500.00, -63486.46, -70894.34, -52127.44, 0.000, 0.000, 0.000, 16:37:53.842
118, -14957.03, -5870.91, -82028.13, -66341.09, 187500.00, -63500.68, -70898.45, -52153.73, 0.000, 0.000, 0.000, 16:37:53.843
119, -14820.01, -5709.08, -81935.77, -66259.20, 187500.00, -63424.82, -70828.52, -52074.80, 0.000, 0.000, 0.000, 16:37:53.843
120, -14914.60, -5918.88, -81885.14, -66216.68, 187500.00, -63381.03, -70795.88, -52026.50, 0.000, 0.000, 0.000, 16:37:53.843
121, -14965.16, -6005.49, -81881.23, -66206.98, 187500.00, -63379.89, -70773.48, -52010.59, 0.000, 0.000, 0.000, 16:37:54.299
122, -14876.72, -5812.15, -81922.47, -66236.24, 187500.00, -63409.37, -70802.57, -52055.22, 0.000, 0.000, 0.000, 16:37:54.299
123, -14777.34, -5653.49, -81903.63, -66223.95, 187500.00, -63393.57, -70797.59, -52042.93, 0.000, 0.000, 0.000, 16:37:54.300
124, -14834.54, -5817.69, -81829.69, -66160.55, 187500.00, -63335.54, -70753.15, -51985.71, 0.000, 0.000, 0.000, 16:37:54.300
125, -14888.14, -5928.40, -81798.76, -66123.48, 187500.00, -63309.01, -70716.96, -51955.85, 0.000, 0.000, 0.000, 16:37:54.307
126, -14836.77, -5791.09, -81851.55, -66164.60, 187500.00, -63349.29, -70729.23, -51991.47, -0.014, 0.986, 0.298, 16:37:54.307
127, -14745.56, -5613.95, -81878.21, -66193.03, 187500.00, -63373.14, -70759.81, -52024.82, 0.000, 0.000, 0.000, 16:37:54.307
128, -14765.72, -5724.21, -81789.79, -66120.28, 187500.00, -63304.50, -70713.16, -51951.96, 0.000, 0.000, 0.000, 16:37:54.307
129, -14790.57, -5833.36, -81698.46, -66028.99, 187500.00, -63217.13, -70620.11, -51855.31, 0.000, 0.000, 0.000, 16:37:54.308
130, -14763.97, -5742.27, -81748.75, -66070.15, 187500.00, -63256.04, -70640.18, -51897.55, 0.000, 0.000, 0.000, 16:37:54.308
131, -14647.99, -5521.08, -81773.95, -66094.04, 187500.00, -63274.12, -70662.40, -51922.54, 0.000, 0.000, 0.000, 16:37:54.308
132, -14671.62, -5612.66, -81731.97, -66061.30, 187500.00, -63240.04, -70647.94, -51888.84, 0.000, 0.000, 0.000, 16:37:54.309
133, -14773.05, -5815.34, -81705.15, -66032.57, 187500.00, -63218.02, -70625.79, -51861.28, 0.000, 0.000, 0.000, 16:37:54.309
134, -14764.09, -5766.24, -81736.73, -66051.19, 187500.00, -63236.12, -70625.74, -51882.29, 0.000, 0.000, 0.000, 16:37:54.309
135, -14677.45, -5557.34, -81802.77, -66112.34, 187500.00, -63295.58, -70672.80, -51950.48, 0.000, 0.000, 0.000, 16:37:54.309
136, -14634.47, -5552.46, -81734.54, -66054.52, 187500.00, -63232.52, -70637.91, -51887.92, -0.006, 0.982, 0.302, 16:37:54.310
137, -14729.67, -5756.56, -81676.34, -65996.59, 187500.00, -63170.66, -70588.46, -51826.74, 0.000, 0.000, 0.000, 16:37:54.310
138, -14751.97, -5762.39, -81697.32, -66006.42, 187500.00, -63179.53, -70578.31, -51828.20, 0.000, 0.000, 0.000, 16:37:54.310
139, -14681.34, -5570.93, -81778.52, -66080.90, 187500.00, -63254.79, -70638.23, -51904.35, 0.000, 0.000, 0.000, 16:37:54.311
140, -14641.76, -5529.75, -81752.53, -66069.81, 187500.00, -63245.73, -70641.32, -51888.32, 0.000, 0.000, 0.000, 16:37:54.311
141, -14747.03, -5753.96, -81702.33, -66033.91, 187500.00, -63218.53, -70617.65, -51849.00, 0.000, 0.000, 0.000, 16:37:54.311
142, -14773.88, -5798.78, -81702.04, -66021.69, 187500.00, -63205.86, -70598.12, -51836.93, 0.000, 0.000, 0.000, 16:37:54.311
143, -14680.00, -5592.05, -81760.53, -66067.44, 187500.00, -63257.04, -70631.20, -51890.78, 0.000, 0.000, 0.000, 16:37:54.312
144, -14620.05, -5491.96, -81765.70, -66080.12, 187500.00, -63262.61, -70650.46, -51903.03, 0.000, 0.000, 0.000, 16:37:54.312
145, -14702.35, -5691.38, -81702.77, -66024.46, 187500.00, -63204.83, -70611.70, -51847.46, -0.008, 0.980, 0.304, 16:37:54.312
146, -14742.85, -5781.79, -81654.41, -65971.17, 187500.00, -63151.75, -70549.19, -51792.84, 0.000, 0.000, 0.000, 16:37:54.313
147, -14631.65, -5569.23, -81667.30, -65972.65, 187500.00, -63153.24, -70528.58, -51793.93, 0.000, 0.000, 0.000, 16:37:54.313
148, -14566.12, -5438.54, -81708.88, -66022.00, 187500.00, -63204.94, -70586.29, -51843.89, 0.000, 0.000, 0.000, 16:37:54.313
149, -14654.97, -5637.22, -81672.69, -65999.73, 187500.00, -63181.81, -70583.66, -51817.73, 0.000, 0.000, 0.000, 16:37:54.313
150, -14713.71, -5766.77, -81636.26, -65962.25, 187500.00, -63144.32, -70537.23, -51776.27, 0.000, 0.000, 0.000, 16:37:54.314
151, -14628.86, -5601.24, -81648.55, -65961.07, 187500.00, -63150.40, -70510.43, -51777.84, 0.000, 0.000, 0.000, 16:37:54.361
152, -14494.19, -5373.11, -81642.31, -65955.41, 187500.00, -63146.22, -70510.61, -51774.35, 0.000, 0.000, 0.000, 16:37:54.362
153, -14542.42, -5510.20, -81594.84, -65926.60, 187500.00, -63114.64, -70497.42, -51747.39, 0.000, 0.000, 0.000, 16:37:54.362
154, -14614.26, -5673.10, -81544.13, -65881.30, 187500.00, -63071.73, -70462.24, -51704.05, 0.000, 0.000, 0.000, 16:37:54.364
155, -14549.62, -5555.95, -81547.45, -65876.52, 187500.00, -63072.89, -70438.30, -51694.91, -0.014, 0.978, 0.308, 16:37:54.365
156, -14440.08, -5338.83, -81590.77, -65915.49, 187500.00, -63108.61, -70478.36, -51733.76, 0.000, 0.000, 0.000, 16:37:54.365
157, -14481.47, -5437.84, -81575.02, -65912.21, 187500.00, -63093.16, -70493.89, -51733.69, 0.000, 0.000, 0.000, 16:37:54.366
158, -14537.82, -5601.15, -81487.80, -65824.90, 187500.00, -63007.82, -70410.16, -51643.23, 0.000, 0.000, 0.000, 16:37:54.366
159, -14517.70, -5547.30, -81501.68, -65821.64, 187500.00, -63007.09, -70388.97, -51640.06, 0.000, 0.000, 0.000, 16:37:54.366
160, -14345.89, -5257.04, -81483.53, -65795.64, 187500.00, -62984.66, -70357.48, -51617.13, 0.000, 0.000, 0.000, 16:37:54.367
161, -14349.98, -5286.88, -81476.20, -65798.19, 187500.00, -62984.17, -70374.38, -51622.71, 0.000, 0.000, 0.000, 16:37:54.367
162, -14502.79, -5550.25, -81480.95, -65807.45, 187500.00, -62994.72, -70395.45, -51636.02, 0.000, 0.000, 0.000, 16:37:54.368
163, -14498.17, -5541.27, -81462.52, -65779.73, 187500.00, -62966.72, -70359.98, -51603.94, 0.000, 0.000, 0.000, 16:37:54.368
164, -14356.14, -5284.24, -81471.81, -65781.56, 187500.00, -62962.34, -70343.04, -51602.00, 0.000, 0.000, 0.000, 16:37:54.368
165, -14300.22, -5220.41, -81446.76, -65769.38, 187500.00, -62950.80, -70337.20, -51588.43, -0.022, 0.986, 0.310, 16:37:54.369
166, -14378.92, -5423.63, -81376.82, -65711.38, 187500.00, -62898.95, -70294.91, -51531.92, 0.000, 0.000, 0.000, 16:37:54.369
167, -14430.11, -5502.75, -81390.43, -65716.05, 187500.00, -62905.09, -70297.04, -51545.16, 0.000, 0.000, 0.000, 16:37:54.369
168, -14320.34, -5284.33, -81420.23, -65730.48, 187500.00, -62914.64, -70294.18, -51562.81, 0.000, 0.000, 0.000, 16:37:54.370
169, -14224.36, -5145.68, -81396.55, -65712.70, 187500.00, -62893.92, -70283.92, -51539.63, 0.000, 0.000, 0.000, 16:37:54.370
170, -14326.60, -5365.25, -81359.74, -65687.10, 187500.00, -62863.47, -70269.91, -51520.57, 0.000, 0.000, 0.000, 16:37:54.370
171, -14339.81, -5429.40, -81297.90, -65621.08, 187500.00, -62804.82, -70195.96, -51444.13, 0.000, 0.000, 0.000, 16:37:54.371
172, -14239.58, -5235.23, -81318.10, -65628.63, 187500.00, -62806.45, -70182.42, -51447.59, 0.000, 0.000, 0.000, 16:37:54.371
173, -14131.91, -5052.43, -81315.84, -65628.90, 187500.00, -62806.34, -70191.23, -51441.29, 0.000, 0.000, 0.000, 16:37:54.371
174, -14211.80, -5234.58, -81282.20, -65604.24, 187500.00, -62779.92, -70173.21, -51404.07, 0.000, 0.000, 0.000, 16:37:54.372
175, -14346.29, -5443.39, -81310.62, -65633.57, 187500.00, -62810.70, -70204.73, -51433.78, -0.026, 0.978, 0.308, 16:37:54.372
176, -14218.21, -5245.89, -81269.20, -65578.97, 187500.00, -62763.34, -70138.19, -51390.26, 0.000, 0.000, 0.000, 16:37:54.372
177, -14112.73, -5040.65, -81295.95, -65607.38, 187500.00, -62792.39, -70164.90, -51422.96, 0.000, 0.000, 0.000, 16:37:54.373
178, -14162.56, -5167.03, -81262.09, -65588.22, 187500.00, -62775.97, -70160.18, -51404.27, 0.000, 0.000, 0.000, 16:37:54.373
179, -14237.68, -5340.41, -81210.32, -65535.94, 187500.00, -62724.74, -70111.99, -51356.17, 0.000, 0.000, 0.000, 16:37:54.373
180, -14153.46, -5209.16, -81176.48, -65490.83, 187500.00, -62684.14, -70052.29, -51312.05, 0.000, 0.000, 0.000, 16:37:54.374
181, -14052.97, -4992.98, -81229.41, -65540.30, 187500.00, -62733.95, -70085.99, -51357.24, 0.000, 0.000, 0.000, 16:37:54.412
182, -14083.99, -5071.43, -81211.22, -65532.94, 187500.00, -62723.84, -70099.05, -51355.50, 0.000, 0.000, 0.000, 16:37:54.413
183, -14166.74, -5262.90, -81147.13, -65473.78, 187500.00, -62668.63, -70053.12, -51294.73, 0.000, 0.000, 0.000, 16:37:54.413
184, -14149.01, -5221.52, -81148.05, -65464.05, 187500.00, -62665.57, -70025.48, -51281.20, 0.000, 0.000, 0.000, 16:37:54.413
185, -14029.68, -4978.83, -81181.17, -65489.87, 187500.00, -62685.18, -70042.63, -51307.51, -0.010, 0.978, 0.306, 16:37:54.413
186, -14015.12, -4977.20, -81162.06, -65482.83, 187500.00, -62672.90, -70046.09, -51298.23, 0.000, 0.000, 0.000, 16:37:54.414
187, -14095.55, -5175.43, -81092.57, -65420.29, 187500.00, -62613.74, -69986.59, -51228.63, 0.000, 0.000, 0.000, 16:37:54.414
188, -14069.66, -5152.66, -81049.75, -65364.66, 187500.00, -62554.44, -69929.33, -51190.93, 0.000, 0.000, 0.000, 16:37:54.414
189, -13987.99, -4951.38, -81122.08, -65419.87, 187500.00, -62621.50, -69966.79, -51253.60, 0.000, 0.000, 0.000, 16:37:54.415
190, -13961.26, -4904.35, -81134.98, -65443.54, 187500.00, -62644.16, -70013.98, -51271.35, 0.000, 0.000, 0.000, 16:37:54.416
191, -14008.69, -5072.73, -81034.73, -65348.77, 187500.00, -62546.37, -69944.57, -51173.18, 0.000, 0.000, 0.000, 16:37:54.417
192, -14073.53, -5163.12, -81053.66, -65356.48, 187500.00, -62562.29, -69941.76, -51178.36, 0.000, 0.000, 0.000, 16:37:54.419
193, -13980.77, -4966.04, -81092.71, -65383.12, 187500.00, -62596.19, -69953.16, -51213.12, 0.000, 0.000, 0.000, 16:37:54.419
194, -13856.05, -4787.79, -81046.59, -65343.45, 187500.00, -62553.34, -69919.77, -51179.04, 0.000, 0.000, 0.000, 16:37:54.421
195, -13930.66, -4972.08, -80986.38, -65294.56, 187500.00, -62501.82, -69871.59, -51108.87, -0.002, 0.986, 0.306, 16:37:54.422
196, -13987.14, -5084.51, -80957.30, -65257.75, 187500.00, -62464.90, -69829.71, -51068.86, 0.000, 0.000, 0.000, 16:37:54.423
197, -13944.56, -4951.22, -81022.32, -65311.39, 187500.00, -62523.35, -69868.47, -51122.50, 0.000, 0.000, 0.000, 16:37:54.424
198, -13859.56, -4785.49, -81049.01, -65341.32, 187500.00, -62548.07, -69908.07, -51159.95, 0.000, 0.000, 0.000, 16:37:54.424
199, -13884.95, -4907.12, -80964.07, -65270.67, 187500.00, -62475.94, -69860.69, -51097.09, 0.000, 0.000, 0.000, 16:37:54.425
200, -13942.75, -5041.79, -80901.33, -65207.79, 187500.00, -62422.25, -69795.55, -51036.92, 0.000, 0.000, 0.000, 16:37:54.425
201, -13863.76, -4896.51, -80903.12, -65197.06, 187500.00, -62419.08, -69770.38, -51030.35, 0.000, 0.000, 0.000, 16:37:54.426
202, -13751.62, -4678.87, -80933.07, -65223.04, 187500.00, -62443.38, -69795.60, -51062.36, 0.000, 0.000, 0.000, 16:37:54.426
203, -13763.69, -4762.17, -80873.86, -65172.39, 187500.00, -62393.26, -69763.26, -51006.61, 0.000, 0.000, 0.000, 16:37:54.426
204, -13831.64, -4931.15, -80810.96, -65104.86, 187500.00, -62326.83, -69695.62, -50937.77, 0.000, 0.000, 0.000, 16:37:54.427
205, -13859.60, -4919.89, -80887.18, -65172.10, 187500.00, -62391.47, -69745.17, -51005.38, 0.000, 0.976, 0.302, 16:37:54.428
206, -13721.65, -4664.67, -80895.92, -65181.51, 187500.00, -62400.68, -69763.32, -51018.66, 0.000, 0.000, 0.000, 16:37:54.429
207, -13701.48, -4680.41, -80836.91, -65135.15, 187500.00, -62347.68, -69730.58, -50972.97, 0.000, 0.000, 0.000, 16:37:54.430
208, -13811.75, -4903.57, -80800.30, -65102.09, 187500.00, -62316.75, -69699.33, -50938.42, 0.000, 0.000, 0.000, 16:37:54.431
209, -13808.50, -4886.90, -80805.84, -65098.22, 187500.00, -62319.70, -69684.91, -50937.86, 0.000, 0.000, 0.000, 16:37:54.432
210, -13673.39, -4631.88, -80822.32, -65105.64, 187500.00, -62326.92, -69688.16, -50952.52, 0.000, 0.000, 0.000, 16:37:54.433
211, -13663.87, -4626.07, -80824.71, -65118.74, 187500.00, -62339.17, -69719.13, -50964.84, 0.000, 0.000, 0.000, 16:37:54.434
212, -13711.03, -4792.08, -80716.64, -65017.51, 187500.00, -62244.04, -69633.26, -50864.45, 0.000, 0.000, 0.000, 16:37:54.439
213, -13738.37, -4828.74, -80717.82, -65004.05, 187500.00, -62231.19, -69604.98, -50853.66, 0.000, 0.000, 0.000, 16:37:54.439
214, -13677.32, -4646.17, -80803.61, -65071.87, 187500.00, -62296.32, -69656.46, -50924.34, 0.000, 0.000, 0.000, 16:37:54.439
215, -13609.33, -4549.74, -80786.09, -65071.11, 187500.00, -62299.88, -69670.36, -50922.50, 0.000, 0.972, 0.304, 16:37:54.440
216, -13628.10, -4695.48, -80669.79, -64966.59, 187500.00, -62192.86, -69579.01, -50812.75, 0.000, 0.000, 0.000, 16:37:54.440
217, -13681.30, -4792.17, -80663.06, -64949.63, 187500.00, -62174.44, -69552.48, -50797.96, 0.000, 0.000, 0.000, 16:37:54.440
218, -13572.05, -4570.71, -80666.93, -64933.63, 187500.00, -62157.45, -69522.26, -50786.67, 0.000, 0.000, 0.000, 16:37:54.441
219, -13541.87, -4471.73, -80724.30, -64999.47, 187500.00, -62223.84, -69584.69, -50844.07, 0.000, 0.000, 0.000, 16:37:54.441
220, -13614.27, -4656.58, -80673.32, -64963.04, 187500.00, -62182.37, -69566.02, -50805.38, 0.000, 0.000, 0.000, 16:37:54.441
221, -13632.46, -4744.25, -80597.30, -64879.49, 187500.00, -62101.46, -69489.54, -50722.45, 0.000, 0.000, 0.000, 16:37:54.441
222, -13520.15, -4548.38, -80584.80, -64853.65, 187500.00, -62079.71, -69442.06, -50699.57, 0.000, 0.000, 0.000, 16:37:54.454
223, -13452.02, -4389.75, -80646.09, -64914.52, 187500.00, -62143.52, -69499.38, -50756.16, 0.000, 0.000, 0.000, 16:37:54.474
224, -13493.66, -4518.32, -80589.88, -64873.45, 187500.00, -62109.28, -69475.57, -50713.00, 0.002, 0.984, 0.296, 16:37:54.475
225, -13565.07, -4672.94, -80544.51, -64821.33, 187500.00, -62052.55, -69431.83, -50678.58, 0.000, 0.000, 0.000, 16:37:54.475
226, -13521.84, -4571.42, -80570.93, -64832.73, 187500.00, -62064.91, -69433.05, -50683.41, 0.000, 0.000, 0.000, 16:37:54.475
227, -13375.33, -4320.61, -80565.79, -64832.02, 187500.00, -62069.81, -69433.68, -50685.51, 0.000, 0.000, 0.000, 16:37:54.476
228, -13419.61, -4424.73, -80546.09, -64821.78, 187500.00, -62052.82, -69436.18, -50671.00, 0.000, 0.000, 0.000, 16:37:54.476
229, -13509.93, -4621.29, -80497.81, -64773.99, 187500.00, -61998.95, -69400.16, -50621.13, 0.000, 0.000, 0.000, 16:37:54.476
230, -13453.94, -4535.41, -80474.73, -64747.35, 187500.00, -61977.16, -69356.37, -50593.04, 0.000, 0.000, 0.000, 16:37:54.499
231, -13347.68, -4309.66, -80515.83, -64788.21, 187500.00, -62021.82, -69379.23, -50636.55, 0.000, 0.000, 0.000, 16:37:54.500
232, -13323.29, -4318.29, -80476.27, -64757.32, 187500.00, -61995.73, -69355.98, -50601.38, 0.000, 0.000, 0.000, 16:37:54.501
233, -13454.88, -4566.82, -80461.45, -64748.91, 187500.00, -61981.63, -69364.57, -50587.98, 0.000, 0.000, 0.000, 16:37:54.501
234, -13444.15, -4550.75, -80450.27, -64725.75, 187500.00, -61955.37, -69331.47, -50570.55, 0.004, 0.982, 0.300, 16:37:54.502
235, -13318.31, -4304.90, -80477.54, -64741.29, 187500.00, -61974.41, -69329.27, -50589.93, 0.000, 0.000, 0.000, 16:37:54.502
236, -13269.27, -4257.02, -80454.16, -64727.39, 187500.00, -61957.60, -69327.89, -50568.83, 0.000, 0.000, 0.000, 16:37:54.502
237, -13433.55, -4541.61, -80477.72, -64759.42, 187500.00, -61988.20, -69375.70, -50598.52, 0.000, 0.000, 0.000, 16:37:54.503
238, -13455.55, -4589.73, -80464.40, -64739.90, 187500.00, -61978.05, -69337.70, -50579.56, 0.000, 0.000, 0.000, 16:37:54.503
239, -13330.40, -4354.01, -80481.12, -64744.78, 187500.00, -61977.38, -69322.05, -50584.36, 0.000, 0.000, 0.000, 16:37:54.503
240, -13233.55, -4216.08, -80450.23, -64720.79, 187500.00, -61957.07, -69309.98, -50566.86, 0.000, 0.000, 0.000, 16:37:54.503
241, -13331.83, -4436.24, -80416.50, -64696.09, 187500.00, -61929.95, -69308.66, -50542.97, 0.000, 0.000, 0.000, 16:37:55.082
242, -13409.66, -4563.18, -80420.37, -64698.04, 187500.00, -61930.25, -69306.63, -50544.76, 0.000, 0.000, 0.000, 16:37:55.082
243, -13255.72, -4312.23, -80378.19, -64646.61, 187500.00, -61879.68, -69232.05, -50489.44, 0.000, 0.000, 0.000, 16:37:55.083
244, -13151.25, -4134.98, -80375.20, -64651.73, 187500.00, -61880.98, -69236.80, -50491.09, 0.000, 0.984, 0.296, 16:37:55.083
245, -13281.70, -4367.73, -80386.68, -64679.22, 187500.00, -61907.73, -69283.52, -50517.36, 0.000, 0.000, 0.000, 16:37:55.083
246, -13354.74, -4511.23, -80361.67, -64648.48, 187500.00, -61878.21, -69251.67, -50491.63, 0.000, 0.000, 0.000, 16:37:55.083
247, -13278.41, -4358.86, -80379.62, -64651.82, 187500.00, -61892.40, -69233.34, -50493.62, 0.000, 0.000, 0.000, 16:37:55.083
248, -13162.92, -4146.96, -80394.02, -64668.07, 187500.00, -61902.15, -69244.47, -50501.35, 0.000, 0.000, 0.000, 16:37:55.084
249, -13190.59, -4255.41, -80337.11, -64622.54, 187500.00, -61851.32, -69219.04, -50457.12, 0.000, 0.000, 0.000, 16:37:55.084
250, -13239.09, -4397.28, -80260.66, -64546.00, 187500.00, -61779.35, -69147.96, -50368.69, 0.000, 0.000, 0.000, 16:37:55.084
251, -13228.99, -4336.08, -80313.86, -64581.61, 187500.00, -61803.67, -69169.51, -50421.38, 0.000, 0.000, 0.000, 16:37:55.084
252, -13087.42, -4085.76, -80321.64, -64587.51, 187500.00, -61810.55, -69170.40, -50441.83, 0.000, 0.000, 0.000, 16:37:55.085
253, -13128.56, -4180.22, -80312.70, -64591.89, 187500.00, -61811.15, -69181.06, -50416.68, 0.000, 0.000, 0.000, 16:37:55.085
254, -13218.98, -4376.83, -80258.18, -64536.23, 187500.00, -61751.03, -69127.88, -50339.30, -0.002, 0.980, 0.298, 16:37:55.085
255, -13166.27, -4297.95, -80225.88, -64491.24, 187500.00, -61709.86, -69069.88, -50306.53, 0.000, 0.000, 0.000, 16:37:55.085
0, -13058.69, -4073.99, -80271.64, -64536.41, 187500.00, -61757.78, -69093.29, -50349.02, 0.000, 0.000, 0.000, 16:37:55.086
1, -13031.33, -4068.51, -80236.21, -64519.49, 187500.00, -61745.15, -69088.26, -50327.45, 0.000, 0.000, 0.000, 16:37:55.086
2, -13107.55, -4264.96, -80160.17, -64448.59, 187500.00, -61665.42, -69036.45, -50260.06, 0.000, 0.000, 0.000, 16:37:55.086
3, -13057.82, -4217.91, -80094.77, -64372.66, 187500.00, -61585.13, -68942.68, -50184.45, 0.000, 0.000, 0.000, 16:37:55.087
4, -12926.39, -3969.11, -80114.38, -64380.84, 187500.00, -61596.96, -68939.75, -50198.26, 0.000, 0.000, 0.000, 16:37:55.087
5, -12903.37, -3928.90, -80130.09, -64408.47, 187500.00, -61628.29, -68982.60, -50228.82, 0.000, 0.000, 0.000, 16:37:55.087
6, -13027.16, -4177.21, -80105.88, -64399.42, 187500.00, -61629.59, -68997.09, -50220.81, 0.000, 0.000, 0.000, 16:37:55.088
7, -13046.44, -4221.77, -80074.07, -64360.26, 187500.00, -61577.20, -68944.94, -50178.12, 0.000, 0.000, 0.000, 16:37:55.088
8, -12997.41, -4063.17, -80168.41, -64438.71, 187500.00, -61653.86, -69005.73, -50260.62, -0.002, 0.974, 0.302, 16:37:55.089
9, -12930.01, -3947.21, -80189.67, -64470.68, 187500.00, -61703.24, -69044.54, -50285.97, 0.000, 0.000, 0.000, 16:37:55.090
10, -13025.50, -4155.08, -80149.24, -64437.33, 187500.00, -61660.64, -69025.16, -50257.02, 0.000, 0.000, 0.000, 16:37:55.091
11, -13190.32, -4370.08, -80207.91, -64488.42, 187500.00, -61701.00, -69074.42, -50314.87, 0.000, 0.000, 0.000, 16:37:55.092
12, -13146.76, -4232.79, -80270.12, -64537.60, 187500.00, -61752.66, -69104.51, -50361.41, 0.000, 0.000, 0.000, 16:37:55.125
13, -12994.81, -4003.60, -80222.71, -64497.23, 187500.00, -61712.47, -69053.52, -50316.17, 0.000, 0.000, 0.000, 16:37:55.126
14, -12991.93, -4103.06, -80097.88, -64388.33, 187500.00, -61600.18, -68960.85, -50199.13, 0.000, 0.000, 0.000, 16:37:55.130
15, -13061.17, -4249.31, -80058.63, -64345.55, 187500.00, -61551.36, -68924.22, -50155.64, 0.000, 0.000, 0.000, 16:37:55.132
16, -12947.52, -4065.27, -80024.77, -64300.11, 187500.00, -61508.67, -68866.82, -50112.30, 0.000, 0.000, 0.000, 16:37:55.134
17, -12853.44, -3867.01, -80067.59, -64341.19, 187500.00, -61548.32, -68901.98, -50153.29, 0.000, 0.000, 0.000, 16:37:55.136
18, -12914.59, -4004.36, -80057.33, -64341.08, 187500.00, -61547.29, -68919.41, -50154.83, -0.004, 0.980, 0.304, 16:37:55.139
19, -12926.75, -4120.41, -79941.50, -64226.37, 187500.00, -61439.71, -68808.30, -50038.27, 0.000, 0.000, 0.000, 16:37:55.142
20, -12863.88, -4018.53, -79936.14, -64212.11, 187500.00, -61426.95, -68771.55, -50020.90, 0.000, 0.000, 0.000, 16:37:55.144
21, -12764.77, -3804.31, -79996.04, -64266.07, 187500.00, -61481.76, -68821.38, -50079.68, 0.000, 0.000, 0.000, 16:37:55.144
22, -12747.80, -3830.91, -79940.70, -64223.24, 187500.00, -61432.18, -68804.79, -50041.22, 0.000, 0.000, 0.000, 16:37:55.144
23, -12827.46, -4023.43, -79877.40, -64162.60, 187500.00, -61382.56, -68750.50, -49982.10, 0.000, 0.000, 0.000, 16:37:55.144
24, -12829.99, -4005.16, -79894.99, -64166.34, 187500.00, -61389.38, -68741.20, -49992.18, 0.000, 0.000, 0.000, 16:37:55.145
25, -12682.98, -3740.47, -79900.87, -64168.64, 187500.00, -61381.04, -68734.85, -50001.45, 0.000, 0.000, 0.000, 16:37:55.145
26, -12625.52, -3697.02, -79850.04, -64131.20, 187500.00, -61341.70, -68710.47, -49949.57, 0.000, 0.000, 0.000, 16:37:55.145
27, -12716.98, -3909.77, -79790.78, -64078.25, 187500.00, -61295.34, -68679.80, -49893.56, 0.000, 0.000, 0.000, 16:37:55.145
28, -12762.17, -3966.56, -79816.31, -64095.05, 187500.00, -61303.10, -68674.68, -49912.02, -0.006, 0.984, 0.308, 16:37:55.146
29, -12673.42, -3766.25, -79876.95, -64149.97, 187500.00, -61369.86, -68710.29, -49965.25, 0.000, 0.000, 0.000, 16:37:55.146
30, -12553.66, -3620.40, -79807.15, -64086.38, 187500.00, -61298.74, -68662.55, -49903.09, 0.000, 0.000, 0.000, 16:37:55.146
31, -12644.36, -3828.79, -79756.16, -64039.33, 187500.00, -61245.57, -68632.23, -49859.39, 0.000, 0.000, 0.000, 16:37:55.147
32, -12697.56, -3917.95, -79752.52, -64029.50, 187500.00, -61238.95, -68608.72, -49845.53, 0.000, 0.000, 0.000, 16:37:55.152
33, -12597.82, -3713.61, -79781.73, -64050.98, 187500.00, -61263.96, -68613.33, -49865.33, 0.000, 0.000, 0.000, 16:37:55.155
34, -12543.28, -3596.98, -79815.30, -64087.25, 187500.00, -61291.39, -68660.22, -49904.71, 0.000, 0.000, 0.000, 16:37:55.156
35, -12569.82, -3734.19, -79711.50, -63995.88, 187500.00, -61200.10, -68584.74, -49810.84, 0.000, 0.000, 0.000, 16:37:55.156
36, -12584.41, -3814.06, -79633.54, -63918.48, 187500.00, -61130.81, -68501.41, -49734.44, 0.000, 0.000, 0.000, 16:37:55.156
37, -12529.14, -3675.79, -79680.86, -63958.87, 187500.00, -61181.13, -68521.08, -49776.15, -0.002, 0.982, 0.312, 16:37:55.156
38, -12435.66, -3499.95, -79710.43, -63988.46, 187500.00, -61221.92, -68561.45, -49806.19, 0.000, 0.000, 0.000, 16:37:55.157
39, -12492.37, -3648.56, -79664.97, -63949.05, 187500.00, -61163.33, -68544.77, -49779.14, 0.000, 0.000, 0.000, 16:37:55.157
40, -12539.95, -3778.99, -79596.55, -63877.06, 187500.00, -61089.68, -68473.83, -49709.43, 0.000, 0.000, 0.000, 16:37:55.157
41, -12477.37, -3650.69, -79603.97, -63872.16, 187500.00, -61092.59, -68452.64, -49705.29, 0.000, 0.000, 0.000, 16:37:55.158
42, -12370.42, -3438.53, -79637.61, -63908.64, 187500.00, -61143.91, -68490.26, -49756.14, 0.000, 0.000, 0.000, 16:37:55.158
43, -12386.96, -3519.33, -79593.35, -63874.18, 187500.00, -61112.46, -68475.17, -49731.38, 0.000, 0.000, 0.000, 16:37:55.158
44, -12494.89, -3728.45, -79567.45, -63843.17, 187500.00, -61080.21, -68455.48, -49685.09, 0.000, 0.000, 0.000, 16:37:55.158
45, -12458.04, -3652.83, -79569.28, -63830.86, 187500.00, -61063.55, -68418.71, -49661.80, 0.000, 0.000, 0.000, 16:37:55.158
46, -12345.49, -3418.27, -79607.79, -63865.75, 187500.00, -61096.84, -68441.35, -49697.79, 0.000, 0.000, 0.000, 16:37:55.159
47, -12295.76, -3405.56, -79531.48, -63800.30, 187500.00, -61034.77, -68398.95, -49625.77, 0.002, 0.980, 0.310, 16:37:55.159
48, -12365.70, -3591.55, -79450.77, -63727.32, 187500.00, -60965.70, -68332.97, -49552.72, 0.000, 0.000, 0.000, 16:37:55.160
49, -12370.51, -3586.49, -79461.88, -63727.23, 187500.00, -60962.19, -68316.54, -49556.70, 0.000, 0.000, 0.000, 16:37:55.160
50, -12283.09, -3378.73, -79525.36, -63784.16, 187500.00, -61019.95, -68358.72, -49617.16, 0.000, 0.000, 0.000, 16:37:55.161
51, -12251.37, -3341.97, -79508.82, -63777.73, 187500.00, -61011.07, -68366.56, -49609.11, 0.000, 0.000, 0.000, 16:37:55.161
52, -12304.08, -3513.22, -79406.24, -63685.28, 187500.00, -60921.42, -68286.25, -49511.48, 0.000, 0.000, 0.000, 16:37:55.161
53, -12322.54, -3551.18, -79391.36, -63659.69, 187500.00, -60891.09, -68245.69, -49483.86, 0.000, 0.000, 0.000, 16:37:55.166
54, -12232.98, -3342.95, -79447.95, -63699.90, 187500.00, -60929.51, -68267.63, -49530.26, 0.000, 0.000, 0.000, 16:37:55.169
55, -12163.46, -3231.93, -79433.80, -63697.48, 187500.00, -60929.91, -68275.37, -49523.48, 0.000, 0.000, 0.000, 16:37:55.171
56, -12224.48, -3408.35, -79350.77, -63623.28, 187500.00, -60854.34, -68224.80, -49446.77, 0.000, 0.000, 0.000, 16:37:55.171
57, -12241.67, -3469.04, -79302.16, -63562.97, 187500.00, -60787.51, -68159.74, -49393.26, 0.000, 0.974, 0.312, 16:37:55.171
58, -12141.00, -3268.65, -79319.19, -63571.62, 187500.00, -60803.61, -68145.70, -49402.00, 0.000, 0.000, 0.000, 16:37:55.172
59, -12096.52, -3153.00, -79372.00, -63633.74, 187500.00, -60877.95, -68211.33, -49464.79, 0.000, 0.000, 0.000, 16:37:55.172
60, -12156.42, -3318.70, -79308.55, -63578.80, 187500.00, -60806.02, -68177.78, -49409.02, 0.000, 0.000, 0.000, 16:37:55.172
61, -12192.79, -3422.88, -79249.83, -63511.63, 187500.00, -60732.57, -68097.70, -49334.72, 0.000, 0.000, 0.000, 16:37:55.172
62, -12113.77, -3257.97, -79260.49, -63509.91, 187500.00, -60730.85, -68083.01, -49340.40, 0.000, 0.000, 0.000, 16:37:55.172
63, -12003.83, -3048.89, -79277.48, -63529.78, 187500.00, -60749.43, -68106.75, -49364.81, 0.000, 0.000, 0.000, 16:37:55.172
64, -12051.03, -3178.33, -79232.02, -63499.34, 187500.00, -60716.97, -68093.52, -49328.67, 0.000, 0.000, 0.000, 16:37:55.179
65, -12146.25, -3362.53, -79203.65, -63470.10, 187500.00, -60695.11, -68062.63, -49301.04, 0.000, 0.000, 0.000, 16:37:55.179
66, -12120.70, -3281.06, -79240.75, -63495.09, 187500.00, -60724.46, -68068.66, -49325.85, 0.000, 0.000, 0.000, 16:37:55.179
67, -11978.90, -3027.28, -79245.23, -63497.04, 187500.00, -60718.20, -68062.20, -49327.88, -0.002, 0.984, 0.306, 16:37:55.180
68, -12004.03, -3112.99, -79213.48, -63483.54, 187500.00, -60710.82, -68065.84, -49307.90, 0.000, 0.000, 0.000, 16:37:55.180
69, -12129.13, -3348.18, -79199.09, -63472.49, 187500.00, -60699.22, -68065.40, -49304.35, 0.000, 0.000, 0.000, 16:37:55.180
70, -12112.72, -3305.02, -79209.57, -63473.57, 187500.00, -60693.57, -68056.01, -49313.98, 0.000, 0.000, 0.000, 16:37:55.180
71, -11968.42, -3039.64, -79217.24, -63476.07, 187500.00, -60699.00, -68042.04, -49305.53, 0.000, 0.000, 0.000, 16:37:55.180
72, -12009.12, -3098.89, -79248.63, -63520.50, 187500.00, -60737.53, -68094.01, -49338.61, 0.000, 0.000, 0.000, 16:37:55.180
73, -12115.56, -3323.41, -79203.09, -63477.97, 187500.00, -60696.70, -68069.76, -49299.57, 0.000, 0.000, 0.000, 16:37:55.181
74, -12110.20, -3319.19, -79186.04, -63454.19, 187500.00, -60685.88, -68029.45, -49268.81, 0.000, 0.000, 0.000, 16:37:55.181
75, -12018.35, -3112.84, -79252.27, -63509.39, 187500.00, -60736.19, -68073.27, -49335.91, 0.000, 0.000, 0.000, 16:37:55.181
76, -11969.16, -3048.51, -79228.80, -63499.88, 187500.00, -60724.57, -68077.06, -49321.92, 0.000, 0.000, 0.000, 16:37:55.184
77, -12096.47, -3293.10, -79207.31, -63483.29, 187500.00, -60703.51, -68078.43, -49305.69, 0.000, 0.978, 0.306, 16:37:55.184
78, -12165.54, -3386.94, -79230.80, -63499.65, 187500.00, -60717.13, -68078.74, -49317.16, 0.000, 0.000, 0.000, 16:37:55.184
79, -12055.99, -3171.29, -79258.10, -63514.43, 187500.00, -60739.84, -68076.46, -49338.66, 0.000, 0.000, 0.000, 16:37:55.184
80, -11955.34, -3026.16, -79237.52, -63497.86, 187500.00, -60725.95, -68063.54, -49321.04, 0.000, 0.000, 0.000, 16:37:55.184
81, -12085.45, -3267.18, -79235.92, -63502.62, 187500.00, -60718.11, -68078.41, -49320.71, 0.000, 0.000, 0.000, 16:37:55.185
82, -12139.86, -3374.15, -79207.00, -63471.38, 187500.00, -60689.72, -68056.61, -49296.86, 0.000, 0.000, 0.000, 16:37:55.185
83, -12013.17, -3153.85, -79188.34, -63441.31, 187500.00, -60656.33, -68027.20, -49278.93, 0.000, 0.000, 0.000, 16:37:55.185
84, -11895.20, -2955.01, -79177.34, -63430.70, 187500.00, -60653.40, -68009.02, -49263.18, 0.000, 0.000, 0.000, 16:37:55.185
85, -12015.87, -3170.24, -79189.68, -63456.29, 187500.00, -60684.76, -68041.37, -49279.49, 0.000, 0.000, 0.000, 16:37:55.185
86, -12120.14, -3352.81, -79187.69, -63452.87, 187500.00, -60671.26, -68045.05, -49279.20, 0.000, 0.000, 0.000, 16:37:55.185
87, -12055.23, -3219.25, -79204.55, -63457.07, 187500.00, -60673.56, -68030.64, -49281.41, 0.000, 0.982, 0.298, 16:37:55.186
88, -11924.59, -2986.37, -79206.84, -63458.54, 187500.00, -60674.01, -68026.99, -49283.09, 0.000, 0.000, 0.000, 16:37:55.186
89, -11984.56, -3122.14, -79189.16, -63452.73, 187500.00, -60673.96, -68048.66, -49285.44, 0.000, 0.000, 0.000, 16:37:55.186
90, -12072.02, -3305.33, -79143.81, -63408.43, 187500.00, -60635.30, -67994.97, -49238.86, 0.000, 0.000, 0.000, 16:37:55.186
91, -12015.81, -3204.44, -79141.51, -63392.32, 187500.00, -60624.46, -67955.76, -49224.08, 0.000, 0.000, 0.000, 16:37:55.186
92, -11895.11, -2965.88, -79174.50, -63422.45, 187500.00, -60648.37, -67989.40, -49264.70, 0.000, 0.000, 0.000, 16:37:55.187
93, -11913.79, -3028.30, -79146.95, -63411.72, 187500.00, -60638.29, -67993.52, -49244.11, 0.000, 0.000, 0.000, 16:37:55.187
94, -12003.22, -3228.93, -79085.30, -63351.75, 187500.00, -60580.33, -67937.90, -49174.91, 0.000, 0.000, 0.000, 16:37:55.187
95, -11971.15, -3178.28, -79066.56, -63323.12, 187500.00, -60542.96, -67895.70, -49147.84, 0.000, 0.000, 0.000, 16:37:55.187
96, -11859.46, -2945.45, -79111.36, -63359.39, 187500.00, -60582.48, -67924.55, -49193.08, 0.000, 0.000, 0.000, 16:37:55.187
97, -11839.12, -2932.68, -79094.91, -63350.03, 187500.00, -60568.69, -67928.23, -49168.23, -0.002, 0.986, 0.304, 16:37:55.187
98, -11982.50, -3193.71, -79087.94, -63349.65, 187500.00, -60572.04, -67949.73, -49178.86, 0.000, 0.000, 0.000, 16:37:55.188
99, -11958.81, -3180.03, -79036.52, -63291.24, 187500.00, -60515.04, -67878.27, -49118.83, 0.000, 0.000, 0.000, 16:37:55.188
100, -11816.56, -2923.38, -79040.03, -63283.89, 187500.00, -60501.88, -67846.13, -49108.93, 0.000, 0.000, 0.000, 16:37:55.188
101, -11720.32, -2800.92, -78990.08, -63244.13, 187500.00, -60457.69, -67822.59, -49074.13, 0.000, 0.000, 0.000, 16:37:55.188
102, -11862.34, -3057.52, -78991.27, -63254.41, 187500.00, -60469.87, -67850.55, -49080.41, 0.000, 0.000, 0.000, 16:37:55.188
103, -11923.45, -3156.33, -78997.59, -63255.79, 187500.00, -60485.32, -67840.13, -49077.23, 0.000, 0.000, 0.000, 16:37:55.188
104, -11812.70, -2945.54, -79017.08, -63260.20, 187500.00, -60485.74, -67830.61, -49089.48, 0.000, 0.000, 0.000, 16:37:55.189
105, -11710.55, -2782.21, -78992.45, -63247.70, 187500.00, -60461.96, -67827.41, -49078.64, 0.000, 0.000, 0.000, 16:37:55.276
106, -11844.66, -3022.49, -78996.85, -63266.32, 187500.00, -60477.20, -67863.16, -49090.42, -0.004, 0.976, 0.308, 16:37:55.277
107, -11894.66, -3134.50, -78960.87, -63223.27, 187500.00, -60442.67, -67817.80, -49047.93, 0.000, 0.000, 0.000, 16:37:55.277
108, -11784.29, -2937.85, -78955.79, -63206.02, 187500.00, -60428.18, -67774.06, -49027.84, 0.000, 0.000, 0.000, 16:37:55.277
109, -11700.40, -2768.46, -78992.76, -63248.53, 187500.00, -60469.49, -67810.23, -49067.87, 0.000, 0.000, 0.000, 16:37:55.277
110, -11768.10, -2929.22, -78957.83, -63224.45, 187500.00, -60432.99, -67808.69, -49046.97, 0.000, 0.000, 0.000, 16:37:55.278
111, -11845.84, -3087.36, -78917.13, -63182.43, 187500.00, -60396.45, -67779.70, -49008.43, 0.000, 0.000, 0.000, 16:37:55.278
112, -11733.01, -2909.17, -78875.10, -63122.62, 187500.00, -60339.47, -67694.40, -48952.75, 0.000, 0.000, 0.000, 16:37:55.278
113, -11625.57, -2693.41, -78907.82, -63156.13, 187500.00, -60372.26, -67718.79, -48980.25, 0.000, 0.000, 0.000, 16:37:55.278
114, -11683.46, -2819.34, -78893.59, -63159.14, 187500.00, -60371.59, -67748.78, -48983.33, 0.000, 0.000, 0.000, 16:37:55.278
115, -11775.59, -3012.57, -78844.30, -63115.45, 187500.00, -60329.43, -67718.34, -48943.01, 0.000, 0.000, 0.000, 16:37:55.279
116, -11748.81, -2947.48, -78857.40, -63115.96, 187500.00, -60327.07, -67697.15, -48946.32, -0.008, 0.978, 0.308, 16:37:55.279
117, -11603.91, -2686.08, -78864.64, -63116.38, 187500.00, -60336.70, -67687.79, -48949.13, 0.000, 0.000, 0.000, 16:37:55.279
118, -11606.23, -2718.73, -78843.41, -63103.98, 187500.00, -60324.20, -67692.30, -48933.71, 0.000, 0.000, 0.000, 16:37:55.279
119, -11745.89, -2970.88, -78839.27, -63099.62, 187500.00, -60319.91, -67708.48, -48936.75, 0.000, 0.000, 0.000, 16:37:55.279
120, -11724.61, -2939.79, -78824.97, -63073.80, 187500.00, -60303.37, -67674.30, -48911.83, 0.000, 0.000, 0.000, 16:37:55.280
121, -11573.38, -2669.98, -78826.60, -63067.93, 187500.00, -60297.43, -67646.99, -48907.27, 0.000, 0.000, 0.000, 16:37:55.280
122, -11561.60, -2661.31, -78829.33, -63081.54, 187500.00, -60301.74, -67662.55, -48917.48, 0.000, 0.000, 0.000, 16:37:55.280
123, -11651.18, -2869.49, -78767.08, -63028.14, 187500.00, -60247.94, -67627.10, -48865.88, 0.000, 0.000, 0.000, 16:37:55.280
124, -11660.17, -2894.22, -78741.13, -62996.80, 187500.00, -60208.98, -67588.21, -48838.87, 0.000, 0.000, 0.000, 16:37:55.280
125, -11548.36, -2671.82, -78772.15, -63021.77, 187500.00, -60243.58, -67591.18, -48860.55, 0.000, 0.000, 0.000, 16:37:55.281
126, -11476.64, -2563.28, -78753.40, -63014.15, 187500.00, -60224.40, -67586.15, -48842.96, -0.002, 0.982, 0.308, 16:37:55.281
127, -11583.79, -2785.03, -78714.37, -62987.79, 187500.00, -60204.13, -67582.93, -48818.24, 0.000, 0.000, 0.000, 16:37:55.281
128, -11666.51, -2908.50, -78733.97, -62998.32, 187500.00, -60217.14, -67591.07, -48827.90, 0.000, 0.000, 0.000, 16:37:55.281
129, -11532.02, -2674.68, -78721.05, -62971.99, 187500.00, -60181.64, -67544.51, -48809.52, 0.000, 0.000, 0.000, 16:37:55.282
130, -11470.40, -2544.84, -78762.05, -63016.11, 187500.00, -60228.00, -67589.17, -48852.64, 0.000, 0.000, 0.000, 16:37:55.282
131, -11512.02, -2692.58, -78675.10, -62942.27, 187500.00, -60157.57, -67549.36, -48778.23, 0.000, 0.000, 0.000, 16:37:55.282
132, -11592.42, -2838.29, -78661.17, -62921.93, 187500.00, -60140.68, -67516.73, -48754.16, 0.000, 0.000, 0.000, 16:37:55.282
133, -11563.03, -2730.29, -78733.66, -62978.86, 187500.00, -60199.50, -67544.31, -48801.59, 0.000, 0.000, 0.000, 16:37:55.283
134, -11415.97, -2493.16, -78708.60, -62955.16, 187500.00, -60174.61, -67533.36, -48785.96, 0.000, 0.000, 0.000, 16:37:55.283
135, -11476.30, -2635.18, -78673.51, -62929.55, 187500.00, -60144.47, -67532.13, -48765.36, 0.000, 0.000, 0.000, 16:37:55.283
136, -11526.06, -2775.59, -78589.55, -62850.15, 187500.00, -60066.38, -67457.27, -48683.15, -0.004, 0.974, 0.312, 16:37:55.283
137, -11484.79, -2676.93, -78616.49, -62866.11, 187500.00, -60082.92, -67444.95, -48690.39, 0.000, 0.000, 0.000, 16:37:55.284
138, -11416.89, -2498.50, -78703.26, -62950.60, 187500.00, -60162.78, -67525.94, -48782.03, 0.000, 0.000, 0.000, 16:37:55.284
139, -11406.79, -2548.57, -78642.24, -62903.42, 187500.00, -60112.29, -67501.35, -48727.81, 0.000, 0.000, 0.000, 16:37:55.284
140, -11505.31, -2751.48, -78597.09, -62858.67, 187500.00, -60075.81, -67454.81, -48678.34, 0.000, 0.000, 0.000, 16:37:55.284
141, -11481.51, -2694.70, -78588.48, -62834.17, 187500.00, -60054.13, -67408.68, -48654.25, 0.000, 0.000, 0.000, 16:37:55.284
142, -11355.49, -2448.32, -78618.66, -62860.57, 187500.00, -60077.33, -67437.60, -48692.56, 0.000, 0.000, 0.000, 16:37:55.285
143, -11360.79, -2481.58, -78611.84, -62868.70, 187500.00, -60088.44, -67469.14, -48708.74, 0.000, 0.000, 0.000, 16:37:55.285
144, -11456.34, -2693.47, -78557.91, -62821.88, 187500.00, -60043.98, -67429.60, -48654.98, 0.000, 0.000, 0.000, 16:37:55.285
145, -11486.49, -2720.10, -78586.27, -62839.89, 187500.00, -60051.69, -67432.87, -48675.59, 0.000, 0.000, 0.000, 16:37:55.285
146, -11316.75, -2433.23, -78562.22, -62809.34, 187500.00, -60023.30, -67383.16, -48643.50, -0.002, 0.976, 0.306, 16:37:55.285
147, -11244.96, -2350.06, -78522.63, -62781.64, 187500.00, -59989.06, -67366.34, -48610.80, 0.000, 0.000, 0.000, 16:37:55.285
148, -11397.69, -2622.15, -78535.34, -62795.52, 187500.00, -59998.27, -67409.71, -48632.41, 0.000, 0.000, 0.000, 16:37:55.286
149, -11435.22, -2685.72, -78528.98, -62782.74, 187500.00, -59987.81, -67374.64, -48612.96, 0.000, 0.000, 0.000, 16:37:55.286
150, -11332.47, -2479.23, -78560.08, -62810.28, 187500.00, -60026.19, -67379.27, -48648.95, 0.000, 0.000, 0.000, 16:37:55.286
151, -11224.96, -2328.98, -78525.50, -62783.05, 187500.00, -60007.41, -67371.48, -48623.63, 0.000, 0.000, 0.000, 16:37:55.286
152, -11301.85, -2523.85, -78466.84, -62735.89, 187500.00, -59952.54, -67345.09, -48574.14, 0.000, 0.000, 0.000, 16:37:55.286
153, -11376.90, -2653.44, -78467.36, -62730.08, 187500.00, -59944.36, -67329.51, -48571.66, 0.000, 0.000, 0.000, 16:37:55.287
154, -11282.53, -2465.26, -78492.44, -62740.72, 187500.00, -59954.68, -67322.70, -48582.59, 0.000, 0.000, 0.000, 16:37:55.287
155, -11165.50, -2272.43, -78482.00, -62733.45, 187500.00, -59948.70, -67318.96, -48566.16, 0.000, 0.000, 0.000, 16:37:55.287
156, -11234.79, -2443.49, -78436.54, -62703.61, 187500.00, -59920.42, -67309.03, -48537.30, -0.004, 0.984, 0.308, 16:37:55.287
157, -11285.98, -2570.43, -78384.19, -62650.82, 187500.00, -59871.65, -67250.98, -48477.60, 0.000, 0.000, 0.000, 16:37:55.287
158, -11257.54, -2463.92, -78439.40, -62693.87, 187500.00, -59904.17, -67275.22, -48523.16, 0.000, 0.000, 0.000, 16:37:55.287
159, -11132.91, -2240.47, -78446.06, -62701.47, 187500.00, -59919.17, -67286.44, -48540.37, 0.000, 0.000, 0.000, 16:37:55.288
160, -11153.36, -2338.95, -78385.04, -62652.81, 187500.00, -59862.35, -67255.30, -48487.73, 0.000, 0.000, 0.000, 16:37:55.288
161, -11270.40, -2548.70, -78379.01, -62643.54, 187500.00, -59857.90, -67245.76, -48475.23, 0.000, 0.000, 0.000, 16:37:55.288
162, -11301.31, -2530.73, -78462.87, -62716.45, 187500.00, -59926.90, -67297.95, -48552.84, 0.000, 0.000, 0.000, 16:37:55.288
163, -11142.68, -2259.07, -78452.30, -62700.91, 187500.00, -59913.34, -67285.99, -48543.54, 0.000, 0.000, 0.000, 16:37:55.288
164, -11106.22, -2270.07, -78371.38, -62631.87, 187500.00, -59852.43, -67235.77, -48474.63, 0.000, 0.000, 0.000, 16:37:55.289
165, -11215.52, -2488.78, -78343.47, -62604.69, 187500.00, -59821.67, -67212.05, -48446.60, 0.000, 0.000, 0.000, 16:37:55.289
166, -11233.43, -2486.88, -78380.70, -62633.23, 187500.00, -59850.55, -67237.33, -48479.77, -0.010, 0.982, 0.306, 16:37:55.289
167, -11101.46, -2233.86, -78398.16, -62646.17, 187500.00, -59867.38, -67239.70, -48495.71, 0.000, 0.000, 0.000, 16:37:55.289
168, -11022.99, -2170.85, -78311.99, -62575.25, 187500.00, -59795.54, -67179.17, -48419.49, 0.000, 0.000, 0.000, 16:37:55.289
169, -11143.89, -2409.90, -78282.45, -62550.13, 187500.00, -59767.38, -67163.73, -48391.91, 0.000, 0.000, 0.000, 16:37:55.289
170, -11177.93, -2449.57, -78299.59, -62556.81, 187500.00, -59773.91, -67152.88, -48397.54, 0.000, 0.000, 0.000, 16:37:55.290
171, -11070.24, -2222.97, -78343.45, -62590.76, 187500.00, -59814.74, -67172.11, -48437.59, 0.000, 0.000, 0.000, 16:37:55.290
172, -11014.25, -2146.50, -78335.64, -62591.39, 187500.00, -59821.34, -67184.49, -48428.47, 0.000, 0.000, 0.000, 16:37:55.290
173, -11110.98, -2367.90, -78289.30, -62552.34, 187500.00, -59774.20, -67173.16, -48387.97, 0.000, 0.000, 0.000, 16:37:55.290
174, -11122.90, -2414.39, -78246.23, -62498.47, 187500.00, -59707.86, -67096.72, -48335.22, 0.000, 0.000, 0.000, 16:37:55.290
175, -11020.44, -2207.77, -78275.83, -62514.52, 187500.00, -59729.69, -67096.07, -48365.86, -0.004, 0.978, 0.310, 16:37:55.290
176, -10967.33, -2096.71, -78307.84, -62551.64, 187500.00, -59767.38, -67143.32, -48395.21, 0.000, 0.000, 0.000, 16:37:55.291
177, -11056.09, -2298.90, -78264.72, -62519.41, 187500.00, -59739.19, -67140.41, -48363.16, 0.000, 0.000, 0.000, 16:37:55.291
178, -11115.37, -2417.32, -78235.62, -62486.63, 187500.00, -59712.46, -67096.07, -48328.65, 0.000, 0.000, 0.000, 16:37:55.291
179, -11011.23, -2224.98, -78235.88, -62480.52, 187500.00, -59707.03, -67062.12, -48321.27, 0.000, 0.000, 0.000, 16:37:55.291
180, -10892.81, -2022.54, -78226.30, -62481.35, 187500.00, -59695.96, -67071.86, -48326.28, 0.000, 0.000, 0.000, 16:37:55.291
181, -10928.53, -2153.41, -78154.55, -62420.13, 187500.00, -59640.40, -67035.18, -48258.11, 0.000, 0.000, 0.000, 16:37:55.292
182, -11038.41, -2341.88, -78155.42, -62419.21, 187500.00, -59649.47, -67025.80, -48255.54, 0.000, 0.000, 0.000, 16:37:55.292
183, -10980.32, -2219.39, -78177.10, -62422.47, 187500.00, -59647.04, -67010.91, -48259.40, 0.000, 0.000, 0.000, 16:37:55.292
184, -10855.62, -1991.12, -78195.72, -62436.76, 187500.00, -59655.29, -67025.62, -48279.27, 0.000, 0.000, 0.000, 16:37:55.292
185, -10909.60, -2112.26, -78172.98, -62433.00, 187500.00, -59650.59, -67043.70, -48276.28, -0.002, 0.984, 0.308, 16:37:55.292
186, -11008.55, -2308.76, -78137.34, -62393.66, 187500.00, -59613.98, -67010.26, -48233.70, 0.000, 0.000, 0.000, 16:37:55.292
187, -10966.79, -2227.15, -78138.03, -62379.80, 187500.00, -59594.49, -66981.31, -48224.85, 0.000, 0.000, 0.000, 16:37:55.293
188, -10822.02, -1967.71, -78145.45, -62389.13, 187500.00, -59606.65, -66973.67, -48227.38, 0.000, 0.000, 0.000, 16:37:55.293
189, -10861.18, -2043.58, -78155.42, -62416.17, 187500.00, -59634.14, -67021.62, -48249.41, 0.000, 0.000, 0.000, 16:37:55.293
190, -10972.49, -2266.06, -78118.34, -62379.16, 187500.00, -59591.40, -66999.77, -48218.66, 0.000, 0.000, 0.000, 16:37:55.293
191, -10982.22, -2260.23, -78138.61, -62385.59, 187500.00, -59604.88, -66990.50, -48227.71, 0.000, 0.000, 0.000, 16:37:55.293
192, -10834.47, -1991.76, -78145.70, -62385.64, 187500.00, -59614.43, -66966.90, -48223.02, 0.000, 0.000, 0.000, 16:37:55.294
193, -10809.86, -1974.31, -78133.36, -62386.64, 187500.00, -59614.02, -66990.34, -48227.04, 0.000, 0.000, 0.000, 16:37:55.294
194, -10929.47, -2212.89, -78104.88, -62364.32, 187500.00, -59589.28, -66983.30, -48198.56, 0.000, 0.000, 0.000, 16:37:55.294
195, -10971.40, -2268.08, -78115.09, -62366.73, 187500.00, -59579.98, -66976.42, -48203.64, 0.002, 0.986, 0.306, 16:37:55.294
196, -10841.40, -2024.00, -78123.41, -62366.64, 187500.00, -59582.95, -66947.59, -48202.88, 0.000, 0.000, 0.000, 16:37:55.305
197, -10781.83, -1931.24, -78115.43, -62370.91, 187500.00, -59585.66, -66963.95, -48209.89, 0.000, 0.000, 0.000, 16:37:55.306
198, -10899.40, -2165.26, -78092.12, -62357.34, 187500.00, -59568.67, -66975.23, -48195.77, 0.000, 0.000, 0.000, 16:37:55.306
199, -10946.68, -2255.74, -78078.42, -62334.12, 187500.00, -59551.46, -66955.79, -48175.20, 0.000, 0.000, 0.000, 16:37:55.307
200, -10829.24, -2040.31, -78083.85, -62327.90, 187500.00, -59544.93, -66916.85, -48159.98, 0.000, 0.000, 0.000, 16:37:55.307
201, -10703.67, -1849.70, -78048.65, -62297.68, 187500.00, -59514.54, -66883.39, -48135.80, 0.000, 0.000, 0.000, 16:37:55.307
202, -10811.67, -2064.21, -78035.44, -62298.47, 187500.00, -59519.77, -66909.16, -48138.97, 0.000, 0.000, 0.000, 16:37:55.307
203, -10870.84, -2189.11, -78007.74, -62263.24, 187500.00, -59484.29, -66872.64, -48102.50, 0.000, 0.000, 0.000, 16:37:55.308
204, -10805.53, -2040.40, -78039.80, -62282.78, 187500.00, -59499.52, -66862.85, -48113.63, 0.000, 0.000, 0.000, 16:37:55.308
205, -10728.55, -1872.88, -78088.72, -62330.63, 187500.00, -59547.55, -66917.61, -48168.93, -0.002, 0.984, 0.304, 16:37:55.308
206, -10773.36, -2006.65, -78034.79, -62294.55, 187500.00, -59521.11, -66897.72, -48124.55, 0.000, 0.000, 0.000, 16:37:55.308
207, -10832.44, -2156.79, -77966.86, -62231.23, 187500.00, -59460.02, -66829.27, -48054.48, 0.000, 0.000, 0.000, 16:37:55.308
208, -10790.33, -2058.69, -77994.78, -62242.59, 187500.00, -59459.32, -66830.91, -48085.91, 0.000, 0.000, 0.000, 16:37:55.308
209, -10671.55, -1831.75, -78022.61, -62269.92, 187500.00, -59484.29, -66852.14, -48110.32, 0.000, 0.000, 0.000, 16:37:55.308
210, -10657.20, -1876.29, -77949.52, -62207.25, 187500.00, -59418.67, -66814.32, -48040.54, 0.000, 0.000, 0.000, 16:37:55.309
211, -10739.88, -2065.99, -77897.15, -62152.91, 187500.00, -59360.02, -66766.96, -47983.43, 0.000, 0.000, 0.000, 16:37:55.309
212, -10740.10, -2034.19, -77932.28, -62174.41, 187500.00, -59387.60, -66772.84, -48011.10, 0.000, 0.000, 0.000, 16:37:55.309
213, -10558.43, -1734.90, -77904.55, -62142.65, 187500.00, -59359.79, -66732.02, -47981.95, 0.000, 0.000, 0.000, 16:37:55.309
214, -10537.48, -1738.76, -77868.31, -62115.96, 187500.00, -59339.88, -66718.79, -47950.17, 0.000, 0.000, 0.000, 16:37:55.309
215, -10645.98, -1962.42, -77823.45, -62078.66, 187500.00, -59295.46, -66700.84, -47923.08, 0.000, 0.982, 0.304, 16:37:55.309
216, -10678.66, -1995.61, -77854.90, -62101.91, 187500.00, -59324.90, -66708.80, -47944.89, 0.000, 0.000, 0.000, 16:37:55.310
217, -10571.75, -1775.89, -77898.62, -62140.24, 187500.00, -59364.27, -66734.02, -47984.41, 0.000, 0.000, 0.000, 16:37:55.310
218, -10583.91, -1780.07, -77936.15, -62191.36, 187500.00, -59419.47, -66797.31, -48036.54, 0.000, 0.000, 0.000, 16:37:55.310
219, -10704.34, -2017.94, -77906.04, -62167.29, 187500.00, -59394.77, -66782.38, -48006.20, 0.000, 0.000, 0.000, 16:37:55.310
220, -10819.45, -2152.74, -77986.06, -62233.82, 187500.00, -59450.43, -66832.43, -48070.09, 0.000, 0.000, 0.000, 16:37:55.310
221, -10770.17, -1994.92, -78075.89, -62313.09, 187500.00, -59532.46, -66896.24, -48149.61, 0.000, 0.000, 0.000, 16:37:55.310
222, -10671.59, -1858.57, -78047.39, -62291.96, 187500.00, -59506.38, -66892.82, -48131.17, 0.000, 0.000, 0.000, 16:37:55.311
223, -10716.63, -2020.26, -77954.97, -62209.86, 187500.00, -59422.71, -66824.38, -48043.11, 0.000, 0.000, 0.000, 16:37:55.311
224, -10704.27, -2051.87, -77860.91, -62110.33, 187500.00, -59324.90, -66721.38, -47944.98, 0.000, 0.000, 0.000, 16:37:55.311
225, -10597.34, -1849.18, -77872.18, -62108.10, 187500.00, -59323.83, -66695.41, -47940.45, 0.002, 0.982, 0.304, 16:37:55.732
226, -10476.35, -1657.09, -77855.03, -62098.20, 187500.00, -59317.88, -66693.24, -47937.49, 0.000, 0.000, 0.000, 16:37:55.734
227, -10514.42, -1795.76, -77773.70, -62033.91, 187500.00, -59252.10, -66649.44, -47872.76, 0.000, 0.000, 0.000, 16:37:55.734
228, -10583.86, -1935.12, -77740.13, -61997.52, 187500.00, -59228.16, -66603.19, -47833.89, 0.000, 0.000, 0.000, 16:37:55.734
229, -10547.92, -1824.86, -77793.48, -62042.76, 187500.00, -59267.46, -66633.32, -47880.43, 0.000, 0.000, 0.000, 16:37:55.735
230, -10412.81, -1591.89, -77791.76, -62035.39, 187500.00, -59252.50, -66632.29, -47883.36, 0.000, 0.000, 0.000, 16:37:55.735
231, -10433.55, -1691.89, -77724.30, -61980.51, 187500.00, -59203.00, -66591.56, -47824.95, 0.000, 0.000, 0.000, 16:37:55.735
232, -10535.47, -1884.77, -77701.68, -61956.89, 187500.00, -59180.91, -66569.55, -47801.46, 0.000, 0.000, 0.000, 16:37:55.736
233, -10515.13, -1811.97, -77733.38, -61975.84, 187500.00, -59205.48, -66571.16, -47817.09, 0.000, 0.000, 0.000, 16:37:55.736
234, -10386.30, -1567.91, -77748.95, -61987.00, 187500.00, -59201.97, -66582.96, -47825.24, 0.000, 0.000, 0.000, 16:37:55.736
235, -10403.19, -1638.70, -77719.45, -61970.70, 187500.00, -59181.52, -66577.17, -47794.38, 0.000, 0.986, 0.304, 16:37:55.737
236, -10514.57, -1860.81, -77688.67, -61944.55, 187500.00, -59153.46, -66556.52, -47769.72, 0.000, 0.000, 0.000, 16:37:55.737
237, -10486.39, -1808.88, -77683.15, -61931.43, 187500.00, -59147.88, -66526.10, -47755.57, 0.000, 0.000, 0.000, 16:37:55.738
238, -10330.86, -1532.99, -77682.86, -61918.40, 187500.00, -59136.59, -66508.20, -47754.14, 0.000, 0.000, 0.000, 16:37:55.738
239, -10337.23, -1554.61, -77684.65, -61930.02, 187500.00, -59143.14, -66545.25, -47773.03, 0.000, 0.000, 0.000, 16:37:55.738
240, -10450.78, -1786.28, -77647.99, -61898.06, 187500.00, -59108.45, -66526.10, -47738.05, 0.000, 0.000, 0.000, 16:37:55.739
241, -10452.48, -1793.21, -77636.99, -61877.36, 187500.00, -59085.79, -66491.38, -47717.13, 0.000, 0.000, 0.000, 16:37:55.739
242, -10332.99, -1557.22, -77667.33, -61898.44, 187500.00, -59111.31, -66492.28, -47736.42, 0.000, 0.000, 0.000, 16:37:55.740
243, -10294.21, -1501.34, -77669.23, -61912.41, 187500.00, -59130.29, -66519.98, -47748.87, 0.000, 0.000, 0.000, 16:37:55.740
244, -10369.22, -1692.56, -77590.81, -61842.56, 187500.00, -59054.80, -66466.95, -47679.96, 0.006, 0.980, 0.302, 16:37:55.741
245, -10336.88, -1691.89, -77501.97, -61744.79, 187500.00, -58958.47, -66362.41, -47581.95, 0.000, 0.000, 0.000, 16:37:55.742
246, -10282.47, -1530.58, -77579.52, -61810.15, 187500.00, -59024.68, -66406.67, -47647.59, 0.000, 0.000, 0.000, 16:37:55.742
247, -10253.24, -1449.94, -77627.96, -61862.94, 187500.00, -59083.39, -66472.34, -47702.67, 0.000, 0.000, 0.000, 16:37:55.743
248, -10339.40, -1650.21, -77580.45, -61830.58, 187500.00, -59057.09, -66465.10, -47669.07, 0.000, 0.000, 0.000, 16:37:55.743
249, -10379.57, -1746.32, -77535.43, -61782.48, 187500.00, -59008.02, -66395.92, -47612.72, 0.000, 0.000, 0.000, 16:37:55.743
250, -10273.31, -1554.45, -77542.36, -61774.79, 187500.00, -58997.02, -66364.07, -47615.41, 0.000, 0.000, 0.000, 16:37:55.744
251, -10172.48, -1375.21, -77555.23, -61791.77, 187500.00, -59028.30, -66399.63, -47642.94, 0.000, 0.000, 0.000, 16:37:55.745
252, -10215.80, -1519.58, -77486.88, -61739.36, 187500.00, -58973.38, -66381.04, -47598.02, 0.000, 0.000, 0.000, 16:37:55.745
253, -10287.10, -1675.64, -77449.80, -61698.28, 187500.00, -58928.52, -66330.50, -47554.39, 0.000, 0.000, 0.000, 16:37:55.745
254, -10217.00, -1536.17, -77453.64, -61692.71, 187500.00, -58931.22, -66306.91, -47552.87, 0.002, 0.982, 0.306, 16:37:55.745
255, -10115.77, -1333.08, -77494.55, -61733.48, 187500.00, -58973.42, -66343.46, -47593.70, 0.000, 0.000, 0.000, 16:37:55.746
0, -10204.46, -1490.79, -77508.91, -61761.24, 187500.00, -58996.67, -66385.59, -47619.94, 0.000, 0.000, 0.000, 16:37:55.749
1, -10254.69, -1641.18, -77420.83, -61679.50, 187500.00, -58915.35, -66305.51, -47533.24, 0.000, 0.000, 0.000, 16:37:55.750
2, -10211.44, -1554.50, -77426.04, -61671.97, 187500.00, -58902.05, -66277.08, -47524.59, 0.000, 0.000, 0.000, 16:37:55.750
3, -10043.85, -1272.53, -77412.76, -61651.65, 187500.00, -58879.21, -66244.22, -47497.59, 0.000, 0.000, 0.000, 16:37:55.750
4, -10057.93, -1326.29, -77392.71, -61647.43, 187500.00, -58871.86, -66254.23, -47486.08, 0.000, 0.000, 0.000, 16:37:55.751
5, -10186.49, -1562.86, -77375.52, -61632.39, 187500.00, -58857.86, -66243.17, -47461.07, 0.000, 0.000, 0.000, 16:37:55.751
6, -10182.09, -1539.14, -77382.59, -61625.99, 187500.00, -58854.31, -66214.60, -47454.59, 0.000, 0.000, 0.000, 16:37:55.751
7, -10063.00, -1298.19, -77412.09, -61652.41, 187500.00, -58882.52, -66232.82, -47488.05, 0.000, 0.000, 0.000, 16:37:55.751
8, -10007.88, -1247.81, -77362.09, -61614.68, 187500.00, -58831.20, -66213.20, -47451.41, 0.000, 0.980, 0.308, 16:37:55.751
9, -10135.20, -1489.54, -77332.70, -61597.70, 187500.00, -58808.51, -66216.35, -47432.41, 0.000, 0.000, 0.000, 16:37:55.752
10, -10135.80, -1500.92, -77304.00, -61555.07, 187500.00, -58768.23, -66159.75, -47389.23, 0.000, 0.000, 0.000, 16:37:55.752
11, -10029.88, -1275.86, -77343.23, -61581.58, 187500.00, -58795.61, -66165.30, -47409.55, 0.000, 0.000, 0.000, 16:37:55.752
12, -9962.93, -1177.87, -77325.84, -61570.76, 187500.00, -58785.15, -66160.13, -47394.84, 0.000, 0.000, 0.000, 16:37:55.752
13, -10056.56, -1383.68, -77273.04, -61530.64, 187500.00, -58744.94, -66125.35, -47348.84, 0.000, 0.000, 0.000, 16:37:55.752
14, -10147.85, -1513.01, -77306.01, -61559.65, 187500.00, -58769.04, -66157.61, -47384.49, 0.000, 0.000, 0.000, 16:37:55.753
15, -10020.15, -1284.15, -77304.69, -61539.45, 187500.00, -58752.41, -66121.55, -47374.86, 0.000, 0.000, 0.000, 16:37:55.753
16, -9887.90, -1088.02, -77259.05, -61501.83, 187500.00, -58719.30, -66093.15, -47342.65, 0.000, 0.000, 0.000, 16:37:55.753
17, -10007.46, -1316.07, -77250.95, -61510.08, 187500.00, -58730.77, -66120.08, -47348.19, 0.000, 0.000, 0.000, 16:37:55.753
18, -10036.56, -1406.86, -77184.48, -61441.90, 187500.00, -58659.87, -66048.64, -47280.51, -0.010, 0.978, 0.306, 16:37:55.753
19, -9975.00, -1261.38, -77229.27, -61473.13, 187500.00, -58689.71, -66057.88, -47314.91, 0.000, 0.000, 0.000, 16:37:55.754
20, -9888.95, -1087.46, -77269.51, -61512.13, 187500.00, -58726.50, -66091.38, -47352.97, 0.000, 0.000, 0.000, 16:37:55.754
21, -9961.81, -1250.45, -77239.00, -61497.89, 187500.00, -58709.80, -66092.81, -47332.77, 0.000, 0.000, 0.000, 16:37:55.754
22, -10072.37, -1447.19, -77230.20, -61489.58, 187500.00, -58700.84, -66092.30, -47317.68, 0.000, 0.000, 0.000, 16:37:55.754
23, -10013.33, -1328.99, -77243.58, -61491.61, 187500.00, -58705.00, -66070.10, -47316.68, 0.000, 0.000, 0.000, 16:37:55.754
24, -9874.35, -1083.39, -77249.30, -61492.39, 187500.00, -58707.32, -66069.61, -47327.74, 0.000, 0.000, 0.000, 16:37:55.754
25, -9945.05, -1215.20, -77258.29, -61515.60, 187500.00, -58731.73, -66114.09, -47344.84, 0.000, 0.000, 0.000, 16:37:55.755
26, -10075.67, -1443.27, -77244.20, -61502.19, 187500.00, -58715.48, -66107.65, -47333.28, 0.000, 0.000, 0.000, 16:37:55.755
27, -10083.01, -1412.32, -77284.75, -61530.53, 187500.00, -58738.21, -66115.05, -47359.12, 0.000, 0.000, 0.000, 16:37:55.755
28, -9941.63, -1152.66, -77295.86, -61531.82, 187500.00, -58743.20, -66105.15, -47367.86, -0.002, 0.982, 0.308, 16:37:55.755
29, -9966.84, -1208.51, -77302.27, -61547.34, 187500.00, -58756.43, -66136.06, -47370.74, 0.000, 0.000, 0.000, 16:37:55.755
30, -10093.20, -1447.66, -77277.38, -61529.19, 187500.00, -58742.71, -66135.23, -47356.26, 0.000, 0.000, 0.000, 16:37:55.756
31, -10078.45, -1424.28, -77260.68, -61503.82, 187500.00, -58712.13, -66096.88, -47328.63, 0.000, 0.000, 0.000, 16:37:55.756
32, -9973.73, -1206.77, -77307.02, -61545.08, 187500.00, -58751.87, -66124.20, -47370.32, 0.000, 0.000, 0.000, 16:37:55.756
33, -9975.45, -1206.46, -77329.03, -61579.07, 187500.00, -58789.91, -66171.06, -47407.24, 0.000, 0.000, 0.000, 16:37:55.756
34, -10125.09, -1471.12, -77330.10, -61584.13, 187500.00, -58797.36, -66193.86, -47414.75, 0.000, 0.000, 0.000, 16:37:55.756
35, -10113.58, -1477.25, -77278.38, -61520.78, 187500.00, -58739.31, -66121.64, -47353.96, 0.000, 0.000, 0.000, 16:37:55.756
36, -9995.83, -1249.22, -77297.90, -61532.61, 187500.00, -58754.44, -66119.30, -47371.93, 0.000, 0.000, 0.000, 16:37:55.757
37, -9956.07, -1167.36, -77322.98, -61567.95, 187500.00, -58785.96, -66155.17, -47407.07, 0.000, 0.000, 0.000, 16:37:55.757
38, -10072.50, -1397.25, -77300.87, -61553.89, 187500.00, -58771.41, -66161.18, -47392.34, 0.000, 0.978, 0.308, 16:37:55.757
39, -10109.74, -1478.37, -77269.46, -61514.23, 187500.00, -58735.33, -66122.41, -47351.92, 0.000, 0.000, 0.000, 16:37:55.757
40, -10022.79, -1293.47, -77304.76, -61533.81, 187500.00, -58749.93, -66124.93, -47374.79, 0.000, 0.000, 0.000, 16:37:55.757
41, -9960.00, -1162.47, -77339.09, -61578.70, 187500.00, -58807.66, -66158.10, -47409.41, 0.000, 0.000, 0.000, 16:37:55.758
42, -10026.39, -1333.64, -77281.91, -61534.60, 187500.00, -58750.46, -66131.63, -47370.05, 0.000, 0.000, 0.000, 16:37:55.758
43, -10064.32, -1441.75, -77218.93, -61464.14, 187500.00, -58674.94, -66061.56, -47302.08, 0.000, 0.000, 0.000, 16:37:55.758
44, -10002.92, -1303.71, -77252.19, -61483.10, 187500.00, -58703.55, -66061.95, -47318.91, 0.000, 0.000, 0.000, 16:37:55.758
45, -9897.91, -1103.77, -77278.45, -61507.48, 187500.00, -58724.49, -66100.05, -47356.77, 0.000, 0.000, 0.000, 16:37:55.758
46, -9936.04, -1222.55, -77226.08, -61471.48, 187500.00, -58687.10, -66088.85, -47318.62, 0.000, 0.000, 0.000, 16:37:55.758
47, -10041.01, -1414.91, -77207.59, -61454.84, 187500.00, -58669.30, -66067.51, -47296.36, 0.000, 0.000, 0.000, 16:37:55.759
48, -10007.57, -1324.72, -77233.45, -61469.51, 187500.00, -58685.55, -66050.92, -47302.97, 0.002, 0.982, 0.314, 16:37:55.759
49, -9924.08, -1128.14, -77299.23, -61530.86, 187500.00, -58746.37, -66115.30, -47372.51, 0.000, 0.000, 0.000, 16:37:55.759
50, -9924.62, -1182.43, -77245.88, -61490.30, 187500.00, -58702.27, -66093.73, -47334.78, 0.000, 0.000, 0.000, 16:37:55.759
51, -9992.48, -1357.56, -77168.30, -61415.53, 187500.00, -58626.59, -66022.42, -47253.06, 0.000, 0.000, 0.000, 16:37:55.760
52, -9983.27, -1320.74, -77182.96, -61418.05, 187500.00, -58626.25, -66003.89, -47254.83, 0.000, 0.000, 0.000, 16:37:55.760
53, -9885.59, -1104.78, -77238.04, -61470.25, 187500.00, -58684.08, -66053.90, -47313.23, 0.000, 0.000, 0.000, 16:37:55.760
54, -9895.32, -1136.07, -77238.40, -61481.76, 187500.00, -58697.55, -66078.66, -47321.48, 0.000, 0.000, 0.000, 16:37:55.760
55, -9966.69, -1327.09, -77163.38, -61407.26, 187500.00, -58624.87, -66014.16, -47244.75, 0.000, 0.000, 0.000, 16:37:55.760
56, -10022.10, -1382.68, -77211.64, -61446.11, 187500.00, -58660.07, -66039.32, -47284.80, 0.000, 0.000, 0.000, 16:37:55.760
57, -9880.86, -1128.63, -77215.95, -61444.63, 187500.00, -58662.26, -66027.25, -47282.81, 0.000, 0.982, 0.304, 16:37:55.760
58, -9841.85, -1076.39, -77211.02, -61450.96, 187500.00, -58656.27, -66043.16, -47291.28, 0.000, 0.000, 0.000, 16:37:55.760
59, -9933.54, -1286.01, -77150.22, -61400.35, 187500.00, -58610.09, -66013.84, -47241.89, 0.000, 0.000, 0.000, 16:37:55.761
60, -9950.39, -1328.34, -77118.97, -61360.59, 187500.00, -58574.98, -65963.33, -47200.67, 0.000, 0.000, 0.000, 16:37:55.761
61, -9839.95, -1108.60, -77142.22, -61371.50, 187500.00, -58590.89, -65949.87, -47215.06, 0.000, 0.000, 0.000, 16:37:55.761
62, -9827.06, -1045.64, -77204.42, -61442.04, 187500.00, -58659.83, -66024.75, -47277.20, 0.000, 0.000, 0.000, 16:37:55.761
63, -9905.76, -1239.20, -77149.63, -61397.16, 187500.00, -58609.27, -66007.63, -47236.54, 0.000, 0.000, 0.000, 16:37:55.761
64, -9931.86, -1319.58, -77096.22, -61335.82, 187500.00, -58545.14, -65940.84, -47167.43, 0.000, 0.000, 0.000, 16:37:55.761
65, -9825.40, -1122.46, -77105.05, -61332.49, 187500.00, -58545.12, -65917.95, -47167.68, 0.000, 0.000, 0.000, 16:37:55.762
66, -9733.42, -949.77, -77123.48, -61354.64, 187500.00, -58569.30, -65944.28, -47190.70, 0.000, 0.000, 0.000, 16:37:55.762
67, -9789.75, -1104.69, -77070.16, -61317.89, 187500.00, -58528.91, -65925.04, -47154.85, 0.002, 0.978, 0.300, 16:37:55.762
68, -9903.88, -1298.99, -77072.55, -61322.43, 187500.00, -58530.99, -65928.01, -47158.47, 0.000, 0.000, 0.000, 16:37:55.762
69, -9870.24, -1199.55, -77115.23, -61350.17, 187500.00, -58560.09, -65928.91, -47182.45, 0.000, 0.000, 0.000, 16:37:55.762
70, -9754.75, -983.63, -77137.25, -61370.82, 187500.00, -58581.02, -65937.35, -47199.57, 0.000, 0.000, 0.000, 16:37:55.762
71, -9828.55, -1131.53, -77134.95, -61380.75, 187500.00, -58585.73, -65977.25, -47213.39, 0.000, 0.000, 0.000, 16:37:55.763
72, -9882.80, -1284.13, -77059.78, -61303.50, 187500.00, -58516.30, -65913.08, -47137.95, 0.000, 0.000, 0.000, 16:37:55.763
73, -9851.80, -1202.01, -77073.04, -61305.29, 187500.00, -58512.44, -65894.10, -47138.62, 0.000, 0.000, 0.000, 16:37:55.763
74, -9743.06, -974.18, -77112.71, -61340.54, 187500.00, -58552.98, -65923.36, -47180.75, 0.000, 0.000, 0.000, 16:37:55.763
75, -9777.41, -1056.50, -77110.92, -61349.19, 187500.00, -58560.47, -65940.66, -47186.01, 0.000, 0.000, 0.000, 16:37:55.763
76, -9842.90, -1235.87, -77028.55, -61272.90, 187500.00, -58480.41, -65877.49, -47112.04, 0.000, 0.000, 0.000, 16:37:55.764
77, -9844.98, -1217.63, -77042.75, -61279.50, 187500.00, -58490.91, -65869.59, -47111.91, 0.006, 0.984, 0.304, 16:37:55.764
78, -9748.09, -998.88, -77096.73, -61329.70, 187500.00, -58545.65, -65900.31, -47159.74, 0.000, 0.000, 0.000, 16:37:55.764
79, -9696.97, -959.49, -77052.30, -61293.78, 187500.00, -58499.81, -65889.05, -47132.47, 0.000, 0.000, 0.000, 16:37:55.764
80, -9791.67, -1172.82, -77000.80, -61243.64, 187500.00, -58449.68, -65849.04, -47080.86, 0.000, 0.000, 0.000, 16:37:55.764
81, -9865.66, -1254.47, -77052.09, -61289.87, 187500.00, -58496.88, -65883.09, -47122.01, 0.000, 0.000, 0.000, 16:37:55.764
82, -9712.08, -984.77, -77042.70, -61269.32, 187500.00, -58478.13, -65853.76, -47110.10, 0.000, 0.000, 0.000, 16:37:55.765
83, -9673.52, -919.91, -77048.12, -61286.04, 187500.00, -58491.74, -65878.66, -47125.61, 0.000, 0.000, 0.000, 16:37:55.765
84, -9777.57, -1142.17, -77009.27, -61256.00, 187500.00, -58461.28, -65859.44, -47086.96, 0.000, 0.000, 0.000, 16:37:55.765
85, -9815.14, -1213.68, -76993.06, -61228.27, 187500.00, -58422.18, -65825.26, -47063.03, 0.000, 0.000, 0.000, 16:37:55.766
86, -9753.54, -1048.72, -77061.28, -61287.72, 187500.00, -58483.45, -65865.58, -47119.73, 0.000, 0.000, 0.000, 16:37:55.766
87, -9648.17, -889.53, -77041.23, -61281.91, 187500.00, -58483.20, -65870.50, -47118.62, 0.002, 0.980, 0.306, 16:37:55.766
88, -9728.35, -1079.68, -76989.30, -61240.98, 187500.00, -58444.58, -65845.35, -47072.64, 0.000, 0.000, 0.000, 16:37:55.767
89, -9792.12, -1200.76, -76966.91, -61208.51, 187500.00, -58417.94, -65808.48, -47045.19, 0.000, 0.000, 0.000, 16:37:55.767
90, -9682.48, -1008.67, -76963.36, -61193.20, 187500.00, -58405.20, -65776.33, -47033.79, 0.000, 0.000, 0.000, 16:37:56.212
91, -9615.74, -859.38, -77018.90, -61256.77, 187500.00, -58471.13, -65841.77, -47087.52, 0.000, 0.000, 0.000, 16:37:56.213
92, -9698.18, -1034.80, -76996.57, -61246.46, 187500.00, -58448.04, -65851.12, -47076.10, 0.000, 0.000, 0.000, 16:37:56.213
93, -9778.58, -1196.35, -76959.89, -61206.36, 187500.00, -58406.02, -65807.09, -47035.04, 0.000, 0.000, 0.000, 16:37:56.213
94, -9689.75, -1046.42, -76946.86, -61182.49, 187500.00, -58379.87, -65763.81, -47014.75, 0.000, 0.000, 0.000, 16:37:56.213
95, -9543.84, -804.10, -76943.51, -61178.04, 187500.00, -58378.35, -65756.59, -47010.48, 0.000, 0.000, 0.000, 16:37:56.213
96, -9635.72, -960.95, -76975.09, -61218.90, 187500.00, -58423.77, -65816.03, -47053.04, 0.000, 0.000, 0.000, 16:37:56.214
97, -9718.09, -1144.61, -76919.26, -61165.41, 187500.00, -58370.10, -65776.96, -47008.51, 0.004, 0.982, 0.308, 16:37:56.214
98, -9672.20, -1059.11, -76906.63, -61145.50, 187500.00, -58357.63, -65742.65, -46988.59, 0.000, 0.000, 0.000, 16:37:56.215
99, -9563.17, -831.66, -76950.17, -61182.63, 187500.00, -58396.64, -65764.80, -47021.14, 0.000, 0.000, 0.000, 16:37:56.215
100, -9597.26, -900.64, -76956.92, -61205.31, 187500.00, -58422.61, -65807.24, -47044.81, 0.000, 0.000, 0.000, 16:37:56.216
101, -9686.33, -1104.38, -76895.34, -61145.14, 187500.00, -58353.12, -65760.10, -46988.46, 0.000, 0.000, 0.000, 16:37:56.216
102, -9664.00, -1071.68, -76874.33, -61116.11, 187500.00, -58319.19, -65705.32, -46947.87, 0.000, 0.000, 0.000, 16:37:56.216
103, -9568.85, -859.34, -76935.66, -61170.55, 187500.00, -58373.34, -65754.18, -47009.32, 0.000, 0.000, 0.000, 16:37:56.217
104, -9505.73, -796.91, -76885.66, -61129.65, 187500.00, -58343.73, -65727.59, -46968.77, 0.000, 0.000, 0.000, 16:37:56.220
105, -9646.59, -1055.72, -76878.30, -61131.26, 187500.00, -58344.49, -65740.68, -46963.07, 0.000, 0.000, 0.000, 16:37:56.222
106, -9680.12, -1103.46, -76876.21, -61119.23, 187500.00, -58327.39, -65717.77, -46953.44, 0.000, 0.000, 0.000, 16:37:56.222
107, -9575.31, -880.48, -76908.46, -61141.88, 187500.00, -58350.50, -65726.02, -46980.28, 0.012, 0.976, 0.300, 16:37:56.222
108, -9508.07, -777.08, -76900.77, -61142.55, 187500.00, -58348.94, -65745.33, -46992.77, 0.000, 0.000, 0.000, 16:37:56.222
109, -9572.83, -958.11, -76821.24, -61070.20, 187500.00, -58284.88, -65694.03, -46917.98, 0.000, 0.000, 0.000, 16:37:56.223
110, -9615.12, -1042.17, -76797.40, -61041.38, 187500.00, -58265.39, -65657.29, -46886.45, 0.000, 0.000, 0.000, 16:37:56.223
111, -9538.38, -867.45, -76843.06, -61077.21, 187500.00, -58292.57, -65659.23, -46920.56, 0.000, 0.000, 0.000, 16:37:56.223
112, -9471.39, -734.86, -76874.20, -61110.98, 187500.00, -58326.36, -65695.20, -46954.29, 0.000, 0.000, 0.000, 16:37:56.223
113, -9557.40, -924.45, -76839.04, -61089.24, 187500.00, -58302.24, -65694.61, -46931.53, 0.000, 0.000, 0.000, 16:37:56.223
114, -9594.13, -1029.63, -76781.15, -61026.92, 187500.00, -58233.87, -65628.27, -46867.38, 0.000, 0.000, 0.000, 16:37:56.224
115, -9531.34, -889.24, -76811.84, -61051.35, 187500.00, -58262.14, -65636.16, -46894.34, 0.000, 0.000, 0.000, 16:37:56.224
116, -9426.78, -692.10, -76831.34, -61073.61, 187500.00, -58283.82, -65665.27, -46921.03, 0.000, 0.000, 0.000, 16:37:56.224
117, -9468.24, -816.71, -76776.95, -61033.67, 187500.00, -58245.25, -65647.38, -46878.38, 0.004, 0.982, 0.306, 16:37:56.224
118, -9623.63, -1058.15, -76816.64, -61072.79, 187500.00, -58281.66, -65684.71, -46914.72, 0.000, 0.000, 0.000, 16:37:56.225
119, -9554.14, -933.79, -76812.04, -61055.93, 187500.00, -58265.61, -65647.38, -46895.46, 0.000, 0.000, 0.000, 16:37:56.225
120, -9433.84, -699.30, -76838.43, -61074.46, 187500.00, -58275.18, -65653.53, -46909.87, 0.000, 0.000, 0.000, 16:37:56.225
121, -9440.84, -763.60, -76784.48, -61036.82, 187500.00, -58240.95, -65639.00, -46875.20, 0.000, 0.000, 0.000, 16:37:56.225
122, -9554.48, -984.75, -76763.09, -61016.59, 187500.00, -58227.01, -65629.21, -46861.23, 0.000, 0.000, 0.000, 16:37:56.225
123, -9539.28, -944.76, -76782.66, -61028.44, 187500.00, -58243.14, -65621.88, -46864.16, 0.000, 0.000, 0.000, 16:37:56.225
124, -9445.89, -731.15, -76839.38, -61078.98, 187500.00, -58287.63, -65661.53, -46913.94, 0.000, 0.000, 0.000, 16:37:56.226
125, -9393.48, -703.70, -76769.05, -61023.41, 187500.00, -58227.30, -65621.66, -46860.57, 0.000, 0.000, 0.000, 16:37:56.226
126, -9509.93, -937.68, -76737.05, -60996.70, 187500.00, -58206.33, -65608.27, -46825.92, -0.002, 0.978, 0.308, 16:37:56.226
127, -9496.79, -927.28, -76718.90, -60964.43, 187500.00, -58165.88, -65562.02, -46801.31, 0.000, 0.000, 0.000, 16:37:56.226
128, -9366.14, -679.98, -76737.54, -60976.61, 187500.00, -58179.89, -65561.42, -46816.78, 0.000, 0.000, 0.000, 16:37:56.226
129, -9318.98, -620.86, -76720.28, -60972.02, 187500.00, -58180.79, -65560.84, -46805.91, 0.000, 0.000, 0.000, 16:37:56.227
130, -9441.20, -862.11, -76689.70, -60952.18, 187500.00, -58157.20, -65551.61, -46784.70, 0.000, 0.000, 0.000, 16:37:56.227
131, -9485.68, -928.38, -76691.23, -60942.45, 187500.00, -58147.75, -65543.56, -46782.98, 0.000, 0.000, 0.000, 16:37:56.227
132, -9378.32, -711.75, -76721.22, -60962.10, 187500.00, -58160.71, -65549.33, -46805.40, 0.000, 0.000, 0.000, 16:37:56.227
133, -9332.66, -621.42, -76749.56, -60999.50, 187500.00, -58198.29, -65585.83, -46838.59, 0.000, 0.000, 0.000, 16:37:56.227
134, -9438.49, -839.89, -76714.80, -60975.38, 187500.00, -58184.96, -65597.85, -46818.52, 0.000, 0.000, 0.000, 16:37:56.227
135, -9439.37, -889.51, -76639.93, -60893.84, 187500.00, -58105.77, -65504.45, -46731.42, 0.000, 0.000, 0.000, 16:37:56.228
136, -9354.03, -710.20, -76671.91, -60913.40, 187500.00, -58120.12, -65503.59, -46755.80, -0.004, 0.978, 0.306, 16:37:56.228
137, -9289.76, -576.41, -76713.29, -60959.69, 187500.00, -58169.16, -65560.30, -46810.61, 0.000, 0.000, 0.000, 16:37:56.228
138, -9357.54, -744.87, -76668.83, -60923.81, 187500.00, -58131.10, -65538.20, -46773.73, 0.000, 0.000, 0.000, 16:37:56.228
139, -9440.30, -901.87, -76650.32, -60902.11, 187500.00, -58114.73, -65510.30, -46744.61, 0.000, 0.000, 0.000, 16:37:56.228
140, -9336.17, -730.37, -76627.32, -60876.02, 187500.00, -58099.80, -65459.52, -46710.34, 0.000, 0.000, 0.000, 16:37:56.229
141, -9231.85, -532.87, -76663.58, -60909.33, 187500.00, -58117.91, -65490.18, -46751.60, 0.000, 0.000, 0.000, 16:37:56.229
142, -9276.67, -655.40, -76622.47, -60876.25, 187500.00, -58079.42, -65487.86, -46726.41, 0.000, 0.000, 0.000, 16:37:56.229
143, -9389.99, -860.25, -76604.39, -60859.21, 187500.00, -58070.77, -65473.71, -46710.16, 0.000, 0.000, 0.000, 16:37:56.229
144, -9356.42, -779.83, -76628.41, -60869.86, 187500.00, -58085.72, -65464.73, -46724.46, 0.000, 0.000, 0.000, 16:37:56.229
145, -9218.13, -527.99, -76636.73, -60873.68, 187500.00, -58089.25, -65465.80, -46721.87, 0.000, 0.000, 0.000, 16:37:56.229
146, -9258.20, -615.39, -76635.34, -60883.31, 187500.00, -58098.82, -65491.75, -46723.68, -0.004, 0.986, 0.306, 16:37:56.230
147, -9366.90, -834.10, -76602.63, -60848.62, 187500.00, -58055.46, -65470.11, -46699.27, 0.000, 0.000, 0.000, 16:37:56.230
148, -9362.21, -807.41, -76614.94, -60849.54, 187500.00, -58064.89, -65463.05, -46702.54, 0.000, 0.000, 0.000, 16:37:56.230
149, -9220.97, -546.68, -76625.47, -60857.92, 187500.00, -58078.97, -65442.35, -46698.02, 0.000, 0.000, 0.000, 16:37:56.230
150, -9256.06, -595.65, -76662.66, -60909.30, 187500.00, -58125.38, -65510.59, -46752.34, 0.000, 0.000, 0.000, 16:37:56.230
151, -9397.17, -854.66, -76651.82, -60904.61, 187500.00, -58121.80, -65518.37, -46746.70, 0.000, 0.000, 0.000, 16:37:56.231
152, -9343.83, -810.21, -76576.27, -60817.39, 187500.00, -58038.20, -65420.58, -46664.07, 0.000, 0.000, 0.000, 16:37:56.231
153, -9177.13, -528.66, -76558.68, -60788.50, 187500.00, -58008.16, -65381.55, -46641.25, 0.000, 0.000, 0.000, 16:37:56.231
154, -9212.70, -541.29, -76638.74, -60875.93, 187500.00, -58092.23, -65487.86, -46731.50, 0.000, 0.000, 0.000, 16:37:56.231
155, -9348.24, -791.52, -76626.34, -60871.46, 187500.00, -58090.08, -65496.62, -46718.92, 0.000, 0.000, 0.000, 16:37:56.231
156, -9387.46, -861.99, -76611.14, -60849.65, 187500.00, -58067.19, -65456.21, -46691.94, 0.000, 0.986, 0.312, 16:37:56.232
157, -9225.06, -599.74, -76583.04, -60810.02, 187500.00, -58028.97, -65396.66, -46656.49, 0.000, 0.000, 0.000, 16:37:56.232
158, -9165.58, -483.33, -76605.10, -60839.64, 187500.00, -58065.11, -65428.83, -46681.97, 0.000, 0.000, 0.000, 16:37:56.232
159, -9284.33, -711.32, -76590.51, -60835.05, 187500.00, -58053.18, -65454.82, -46683.83, 0.000, 0.000, 0.000, 16:37:56.232
160, -9342.29, -826.39, -76560.22, -60800.65, 187500.00, -58017.95, -65419.82, -46655.58, 0.000, 0.000, 0.000, 16:37:56.232
161, -9280.09, -675.94, -76608.75, -60835.05, 187500.00, -58049.47, -65430.71, -46686.00, 0.000, 0.000, 0.000, 16:37:56.233
162, -9192.20, -502.00, -76633.31, -60864.96, 187500.00, -58082.91, -65463.99, -46715.57, 0.000, 0.000, 0.000, 16:37:56.233
163, -9280.09, -684.16, -76608.37, -60857.92, 187500.00, -58080.65, -65476.91, -46701.35, 0.000, 0.000, 0.000, 16:37:56.233
164, -9307.02, -792.44, -76522.73, -60766.10, 187500.00, -57989.03, -65384.04, -46606.09, 0.000, 0.000, 0.000, 16:37:56.233
165, -9279.77, -698.85, -76571.02, -60804.59, 187500.00, -58019.70, -65404.27, -46652.65, 0.000, 0.000, 0.000, 16:37:56.233
166, -9159.23, -477.92, -76591.80, -60826.83, 187500.00, -58047.14, -65417.95, -46672.81, -0.002, 0.982, 0.308, 16:37:56.234
167, -9188.18, -576.47, -76551.23, -60796.00, 187500.00, -58011.07, -65411.53, -46646.03, 0.000, 0.000, 0.000, 16:37:56.234
168, -9302.55, -788.41, -76531.09, -60775.38, 187500.00, -57986.21, -65400.82, -46628.89, 0.000, 0.000, 0.000, 16:37:56.234
169, -9240.10, -684.68, -76509.93, -60744.77, 187500.00, -57956.62, -65342.35, -46590.13, 0.000, 0.000, 0.000, 16:37:56.234
170, -9125.97, -451.77, -76543.57, -60773.86, 187500.00, -57997.68, -65364.28, -46631.21, 0.000, 0.000, 0.000, 16:37:56.234
171, -9084.58, -453.16, -76473.32, -60723.14, 187500.00, -57952.39, -65331.06, -46572.94, 0.000, 0.000, 0.000, 16:37:56.234
172, -9190.08, -669.79, -76435.37, -60680.67, 187500.00, -57892.45, -65305.36, -46526.41, 0.000, 0.000, 0.000, 16:37:56.235
173, -9171.66, -636.18, -76424.37, -60654.56, 187500.00, -57871.50, -65269.71, -46509.89, 0.000, 0.000, 0.000, 16:37:56.235
174, -9046.73, -391.96, -76454.92, -60679.48, 187500.00, -57898.14, -65274.98, -46535.23, 0.000, 0.000, 0.000, 16:37:56.235
175, -9086.61, -434.61, -76508.27, -60752.53, 187500.00, -57978.34, -65358.60, -46600.79, 0.000, 0.000, 0.000, 16:37:56.236
176, -9220.21, -688.34, -76491.76, -60743.12, 187500.00, -57968.49, -65365.26, -46588.90, 0.000, 0.982, 0.306, 16:37:56.236
177, -9196.65, -681.46, -76437.78, -60677.68, 187500.00, -57896.20, -65285.31, -46527.19, 0.000, 0.000, 0.000, 16:37:56.236
178, -9184.71, -554.86, -76579.47, -60805.66, 187500.00, -58016.39, -65388.86, -46658.35, 0.000, 0.000, 0.000, 16:37:56.237
179, -9254.76, -594.91, -76710.23, -60945.92, 187500.00, -58155.91, -65546.66, -46795.45, 0.000, 0.000, 0.000, 16:37:56.237
180, -9333.78, -800.95, -76644.55, -60890.13, 187500.00, -58098.93, -65509.18, -46740.54, 0.000, 0.000, 0.000, 16:37:56.237
181, -9335.47, -839.55, -76579.17, -60816.57, 187500.00, -58021.82, -65425.07, -46662.95, 0.000, 0.000, 0.000, 16:37:56.238
182, -9181.90, -587.54, -76548.82, -60776.16, 187500.00, -57992.47, -65366.80, -46620.48, 0.000, 0.000, 0.000, 16:37:56.239
183, -9116.47, -459.69, -76575.91, -60811.67, 187500.00, -58030.89, -65402.79, -46655.62, 0.000, 0.000, 0.000, 16:37:56.240
184, -9153.58, -605.15, -76487.31, -60735.66, 187500.00, -57948.28, -65343.78, -46577.91, 0.000, 0.000, 0.000, 16:37:56.242
185, -9177.25, -696.46, -76416.55, -60660.69, 187500.00, -57864.48, -65269.98, -46499.72, 0.000, 0.000, 0.000, 16:37:56.242
186, -9109.01, -545.32, -76448.53, -60681.65, 187500.00, -57889.25, -65268.75, -46522.67, -0.004, 0.982, 0.308, 16:37:56.242
187, -9016.40, -363.46, -76478.59, -60709.32, 187500.00, -57911.65, -65299.17, -46556.76, 0.000, 0.000, 0.000, 16:37:56.242
188, -9059.32, -493.84, -76424.45, -60667.68, 187500.00, -57873.18, -65275.00, -46512.21, 0.000, 0.000, 0.000, 16:37:56.242
189, -9135.20, -655.33, -76379.02, -60619.70, 187500.00, -57826.00, -65238.93, -46464.61, 0.000, 0.000, 0.000, 16:37:56.243
190, -9103.46, -563.64, -76412.12, -60640.19, 187500.00, -57856.68, -65237.86, -46482.73, 0.000, 0.000, 0.000, 16:37:56.243
191, -8993.16, -343.57, -76449.31, -60675.11, 187500.00, -57887.42, -65272.70, -46527.08, 0.000, 0.000, 0.000, 16:37:56.243
192, -9008.16, -421.35, -76404.48, -60645.40, 187500.00, -57852.19, -65264.68, -46500.32, 0.000, 0.000, 0.000, 16:37:56.243
193, -9134.53, -649.18, -76397.68, -60635.54, 187500.00, -57845.39, -65262.26, -46493.21, 0.000, 0.000, 0.000, 16:37:56.243
194, -9085.47, -566.08, -76377.85, -60605.37, 187500.00, -57825.08, -65214.21, -46467.13, 0.000, 0.000, 0.000, 16:37:56.243
195, -8969.35, -331.39, -76411.13, -60637.84, 187500.00, -57852.50, -65233.88, -46494.69, -0.002, 0.980, 0.306, 16:37:56.244
196, -8978.92, -371.17, -76401.95, -60640.62, 187500.00, -57848.93, -65255.18, -46497.26, 0.000, 0.000, 0.000, 16:37:56.244
197, -9091.21, -600.73, -76365.29, -60605.10, 187500.00, -57815.63, -65234.70, -46461.07, 0.000, 0.000, 0.000, 16:37:56.244
198, -9091.39, -592.01, -76356.38, -60586.82, 187500.00, -57798.01, -65197.73, -46439.01, 0.000, 0.000, 0.000, 16:37:56.244
199, -8982.70, -359.80, -76392.25, -60615.31, 187500.00, -57822.08, -65208.39, -46466.61, 0.000, 0.000, 0.000, 16:37:56.245
200, -8980.13, -351.41, -76417.55, -60649.04, 187500.00, -57864.57, -65253.50, -46499.67, 0.000, 0.000, 0.000, 16:37:56.245
201, -9045.46, -538.81, -76333.28, -60572.76, 187500.00, -57789.52, -65193.20, -46421.11, 0.000, 0.000, 0.000, 16:37:56.245
202, -9031.51, -542.59, -76279.66, -60511.56, 187500.00, -57723.38, -65125.02, -46365.05, 0.000, 0.000, 0.000, 16:37:56.245
203, -8914.23, -318.04, -76303.96, -60529.84, 187500.00, -57755.09, -65126.39, -46381.41, 0.000, 0.000, 0.000, 16:37:56.246
204, -8887.86, -254.18, -76342.25, -60571.84, 187500.00, -57796.69, -65180.90, -46426.38, 0.000, 0.000, 0.000, 16:37:56.247
205, -9037.01, -514.78, -76352.82, -60587.31, 187500.00, -57805.27, -65215.04, -46443.17, 0.006, 0.980, 0.304, 16:37:56.247
206, -9057.46, -582.87, -76297.54, -60526.04, 187500.00, -57740.45, -65143.42, -46375.89, 0.000, 0.000, 0.000, 16:37:56.248
207, -8955.90, -384.58, -76313.37, -60530.85, 187500.00, -57752.05, -65139.51, -46389.21, 0.000, 0.000, 0.000, 16:37:56.253
208, -8828.07, -182.19, -76287.06, -60508.54, 187500.00, -57732.41, -65123.79, -46373.81, 0.000, 0.000, 0.000, 16:37:56.254
209, -8933.34, -382.19, -76277.83, -60511.18, 187500.00, -57734.71, -65147.82, -46373.03, 0.000, 0.000, 0.000, 16:37:56.254
210, -9015.51, -532.71, -76265.29, -60493.88, 187500.00, -57714.91, -65123.17, -46350.92, 0.000, 0.000, 0.000, 16:37:56.676
211, -8926.26, -371.82, -76259.99, -60478.66, 187500.00, -57702.93, -65089.37, -46338.56, 0.000, 0.000, 0.000, 16:37:56.676
212, -8816.80, -174.16, -76274.68, -60498.84, 187500.00, -57724.52, -65103.52, -46356.64, 0.000, 0.000, 0.000, 16:37:56.677
213, -8872.55, -315.92, -76245.75, -60487.08, 187500.00, -57712.58, -65106.98, -46343.88, 0.000, 0.000, 0.000, 16:37:56.677
214, -8948.72, -484.21, -76199.27, -60438.94, 187500.00, -57669.00, -65053.10, -46290.04, 0.000, 0.000, 0.000, 16:37:56.677
215, -8891.93, -377.68, -76195.35, -60423.71, 187500.00, -57651.99, -65021.54, -46273.63, 0.000, 0.980, 0.296, 16:37:56.677
216, -8795.77, -168.17, -76242.29, -60463.48, 187500.00, -57688.33, -65065.10, -46316.03, 0.000, 0.000, 0.000, 16:37:56.677
217, -8855.29, -279.22, -76255.99, -60491.08, 187500.00, -57717.57, -65108.89, -46343.97, 0.000, 0.000, 0.000, 16:37:56.677
218, -8914.81, -449.20, -76173.31, -60411.71, 187500.00, -57636.86, -65037.00, -46267.57, 0.000, 0.000, 0.000, 16:37:56.677
219, -8861.77, -368.80, -76145.33, -60372.37, 187500.00, -57587.23, -64982.02, -46233.40, 0.000, 0.000, 0.000, 16:37:56.678
220, -8769.39, -157.09, -76214.10, -60434.69, 187500.00, -57652.12, -65029.18, -46295.47, 0.000, 0.000, 0.000, 16:37:56.678
221, -8784.66, -192.40, -76223.29, -60458.25, 187500.00, -57677.24, -65060.23, -46302.87, 0.000, 0.000, 0.000, 16:37:56.678
222, -8858.80, -385.21, -76138.91, -60382.79, 187500.00, -57599.68, -64990.58, -46218.24, 0.000, 0.000, 0.000, 16:37:56.678
223, -8871.54, -400.34, -76133.57, -60369.55, 187500.00, -57592.31, -64955.57, -46204.09, 0.000, 0.000, 0.000, 16:37:56.678
224, -8721.85, -133.17, -76132.19, -60357.66, 187500.00, -57570.34, -64929.63, -46202.53, 0.000, 0.000, 0.000, 16:37:56.678
225, -8700.73, -93.81, -76147.34, -60382.34, 187500.00, -57599.04, -64972.92, -46226.54, 0.000, 0.980, 0.300, 16:37:56.678
226, -8797.13, -305.91, -76093.59, -60336.74, 187500.00, -57552.75, -64950.30, -46178.57, 0.000, 0.000, 0.000, 16:37:56.678
227, -8862.67, -395.04, -76108.49, -60342.24, 187500.00, -57560.28, -64939.26, -46184.22, 0.000, 0.000, 0.000, 16:37:56.678
228, -8750.28, -171.15, -76133.10, -60352.08, 187500.00, -57563.92, -64926.20, -46196.79, 0.000, 0.000, 0.000, 16:37:56.679
229, -8663.96, -32.77, -76123.27, -60349.04, 187500.00, -57556.39, -64928.66, -46189.18, 0.000, 0.000, 0.000, 16:37:56.679
230, -8778.13, -263.30, -76102.81, -60342.29, 187500.00, -57549.01, -64944.49, -46179.69, 0.000, 0.000, 0.000, 16:37:56.679
231, -8797.13, -335.99, -76037.32, -60273.93, 187500.00, -57481.60, -64874.13, -46114.48, 0.000, 0.000, 0.000, 16:37:56.679
232, -8711.86, -151.99, -76058.31, -60283.68, 187500.00, -57495.99, -64859.62, -46127.23, 0.000, 0.000, 0.000, 16:37:56.679
233, -8649.52, -9.28, -76110.75, -60337.13, 187500.00, -57544.00, -64915.81, -46181.00, 0.000, 0.000, 0.000, 16:37:56.679
234, -8700.10, -160.64, -76055.36, -60295.59, 187500.00, -57513.36, -64898.55, -46141.57, 0.000, 0.000, 0.000, 16:37:56.679
235, -8817.63, -354.72, -76063.34, -60300.00, 187500.00, -57526.93, -64902.07, -46144.75, 0.000, 0.980, 0.304, 16:37:56.680
236, -8729.23, -196.52, -76050.29, -60269.27, 187500.00, -57476.26, -64856.73, -46116.88, 0.000, 0.000, 0.000, 16:37:56.680
237, -8635.55, 1.54, -76092.80, -60311.73, 187500.00, -57517.99, -64893.19, -46166.18, 0.000, 0.000, 0.000, 16:37:56.680
238, -8712.13, -146.36, -76087.48, -60324.27, 187500.00, -57526.21, -64920.86, -46170.03, 0.000, 0.000, 0.000, 16:37:56.680
239, -8808.26, -339.93, -76048.90, -60286.25, 187500.00, -57488.44, -64887.02, -46124.05, 0.000, 0.000, 0.000, 16:37:56.680
240, -8793.78, -280.09, -76081.98, -60307.84, 187500.00, -57505.09, -64892.75, -46151.93, 0.000, 0.000, 0.000, 16:37:56.680
241, -8681.26, -53.17, -76120.80, -60342.24, 187500.00, -57548.25, -64915.97, -46189.25, 0.000, 0.000, 0.000, 16:37:56.680
242, -8680.34, -94.46, -76078.79, -60314.75, 187500.00, -57519.87, -64901.46, -46154.25, 0.000, 0.000, 0.000, 16:37:56.680
243, -8812.78, -335.70, -76065.51, -60304.71, 187500.00, -57506.03, -64902.60, -46149.11, 0.000, 0.000, 0.000, 16:37:56.681
244, -8871.90, -373.74, -76134.09, -60362.14, 187500.00, -57567.45, -64943.24, -46207.98, 0.000, 0.000, 0.000, 16:37:56.681
245, -8798.14, -180.96, -76219.76, -60438.60, 187500.00, -57644.72, -65012.21, -46281.70, 0.000, 0.978, 0.302, 16:37:56.681
246, -8767.56, -159.37, -76194.32, -60428.86, 187500.00, -57630.20, -65017.40, -46269.18, 0.000, 0.000, 0.000, 16:37:56.681
247, -8849.99, -356.73, -76121.95, -60363.03, 187500.00, -57567.90, -64951.93, -46196.52, 0.000, 0.000, 0.000, 16:37:56.681
248, -8910.50, -425.67, -76159.81, -60387.30, 187500.00, -57591.55, -64968.00, -46222.94, 0.000, 0.000, 0.000, 16:37:56.681
249, -8807.68, -206.73, -76195.77, -60414.55, 187500.00, -57616.92, -64981.93, -46250.05, 0.000, 0.000, 0.000, 16:37:56.681
250, -8785.71, -159.06, -76217.84, -60449.80, 187500.00, -57648.14, -65022.65, -46288.02, 0.000, 0.000, 0.000, 16:37:56.682
251, -8887.08, -380.36, -76179.13, -60418.89, 187500.00, -57619.04, -65009.84, -46249.60, 0.000, 0.000, 0.000, 16:37:56.682
252, -8912.56, -441.27, -76148.79, -60379.30, 187500.00, -57579.07, -64962.46, -46217.30, 0.000, 0.000, 0.000, 16:37:56.682
253, -8817.47, -242.92, -76177.47, -60397.99, 187500.00, -57601.38, -64963.82, -46236.88, 0.000, 0.000, 0.000, 16:37:56.682
254, -8742.35, -106.51, -76187.41, -60418.57, 187500.00, -57625.10, -64995.09, -46263.41, 0.000, 0.000, 0.000, 16:37:56.682
255, -8820.02, -294.08, -76146.49, -60392.63, 187500.00, -57596.29, -64989.62, -46234.02, 0.002, 0.978, 0.308, 16:37:56.683
0, -8924.47, -460.38, -76168.69, -60409.66, 187500.00, -57610.99, -65000.26, -46250.59, 0.000, 0.000, 0.000, 16:37:56.683
1, -8859.65, -306.13, -76194.66, -60423.45, 187500.00, -57624.88, -64997.64, -46269.83, 0.000, 0.000, 0.000, 16:37:56.683
2, -8749.34, -104.25, -76193.95, -60418.64, 187500.00, -57618.86, -64988.61, -46264.29, 0.000, 0.000, 0.000, 16:37:56.683
3, -8809.36, -250.88, -76151.09, -60392.00, 187500.00, -57591.82, -64992.23, -46233.96, 0.000, 0.000, 0.000, 16:37:56.683
4, -8846.89, -373.23, -76074.88, -60318.21, 187500.00, -57521.54, -64920.17, -46163.64, 0.000, 0.000, 0.000, 16:37:56.683
5, -8856.63, -319.38, -76161.04, -60394.43, 187500.00, -57598.12, -64969.68, -46247.64, 0.000, 0.000, 0.000, 16:37:56.684
6, -8760.97, -116.52, -76206.64, -60441.21, 187500.00, -57647.67, -65011.52, -46293.86, 0.000, 0.000, 0.000, 16:37:56.684
7, -8776.14, -198.57, -76159.34, -60402.17, 187500.00, -57607.13, -64998.00, -46250.74, 0.000, 0.000, 0.000, 16:37:56.684
8, -8858.31, -382.26, -76107.04, -60346.71, 187500.00, -57547.11, -64950.64, -46196.36, 0.000, 0.974, 0.310, 16:37:56.684
9, -8799.75, -289.03, -76087.48, -60315.09, 187500.00, -57518.77, -64892.16, -46159.17, 0.000, 0.000, 0.000, 16:37:56.684
10, -8751.51, -123.40, -76198.59, -60419.87, 187500.00, -57623.44, -64990.96, -46267.66, 0.000, 0.000, 0.000, 16:37:56.685
11, -8755.04, -159.21, -76174.34, -60409.99, 187500.00, -57612.74, -65001.08, -46260.15, 0.000, 0.000, 0.000, 16:37:56.685
12, -8814.68, -329.60, -76080.17, -60322.17, 187500.00, -57522.93, -64919.45, -46167.88, 0.000, 0.000, 0.000, 16:37:56.685
13, -8842.48, -349.40, -76111.13, -60341.80, 187500.00, -57544.39, -64921.46, -46183.75, 0.000, 0.000, 0.000, 16:37:56.686
14, -8741.07, -130.78, -76166.38, -60386.63, 187500.00, -57586.16, -64946.70, -46228.19, 0.000, 0.000, 0.000, 16:37:56.686
15, -8691.92, -76.49, -76137.84, -60369.64, 187500.00, -57574.11, -64948.45, -46210.82, 0.000, 0.000, 0.000, 16:37:56.686
16, -8812.93, -316.88, -76107.33, -60344.70, 187500.00, -57542.64, -64940.89, -46188.74, 0.000, 0.000, 0.000, 16:37:56.686
17, -8846.95, -369.74, -76108.65, -60336.32, 187500.00, -57527.58, -64926.88, -46185.12, 0.000, 0.000, 0.000, 16:37:56.686
18, -8680.79, -98.10, -76087.13, -60305.79, 187500.00, -57499.30, -64874.59, -46153.58, -0.002, 0.974, 0.310, 16:37:56.687
19, -8624.87, -6.79, -76090.43, -60319.91, 187500.00, -57520.27, -64894.29, -46162.50, 0.000, 0.000, 0.000, 16:37:56.687
20, -8779.07, -275.11, -76105.43, -60346.76, 187500.00, -57544.50, -64945.54, -46190.68, 0.000, 0.000, 0.000, 16:37:56.687
21, -8857.71, -398.80, -76116.61, -60351.81, 187500.00, -57545.68, -64937.31, -46187.62, 0.000, 0.000, 0.000, 16:37:56.687
22, -8740.43, -185.43, -76118.33, -60344.48, 187500.00, -57552.14, -64915.59, -46185.83, 0.000, 0.000, 0.000, 16:37:56.688
23, -8615.14, 7.44, -76094.99, -60323.82, 187500.00, -57528.79, -64901.33, -46175.44, 0.000, 0.000, 0.000, 16:37:56.688
24, -8740.74, -221.37, -76098.92, -60339.29, 187500.00, -57546.66, -64940.46, -46193.30, 0.000, 0.000, 0.000, 16:37:56.688
25, -8785.80, -336.46, -76043.83, -60283.30, 187500.00, -57497.22, -64886.04, -46131.36, 0.000, 0.000, 0.000, 16:37:56.688
26, -8731.31, -204.16, -76081.09, -60309.74, 187500.00, -57518.23, -64892.63, -46166.68, 0.000, 0.000, 0.000, 16:37:56.688
27, -8588.93, 28.03, -76066.02, -60294.41, 187500.00, -57497.89, -64880.85, -46155.14, 0.000, 0.000, 0.000, 16:37:56.688
28, -8677.77, -142.74, -76069.38, -60306.82, 187500.00, -57500.62, -64912.53, -46157.71, -0.002, 0.982, 0.310, 16:37:56.688
29, -8794.16, -343.55, -76061.24, -60295.73, 187500.00, -57495.30, -64902.36, -46153.91, 0.000, 0.000, 0.000, 16:37:56.688
30, -8735.42, -232.77, -76060.68, -60287.57, 187500.00, -57488.02, -64864.45, -46142.52, 0.000, 0.000, 0.000, 16:37:56.688
31, -8605.82, 7.40, -76075.68, -60302.75, 187500.00, -57504.78, -64886.82, -46162.52, 0.000, 0.000, 0.000, 16:37:56.688
32, -8637.09, -74.88, -76049.30, -60288.29, 187500.00, -57496.84, -64894.53, -46142.09, 0.000, 0.000, 0.000, 16:37:56.689
33, -8768.79, -309.95, -76038.66, -60278.07, 187500.00, -57479.52, -64892.03, -46132.70, 0.000, 0.000, 0.000, 16:37:56.689
34, -8676.61, -191.31, -75969.58, -60196.80, 187500.00, -57399.39, -64792.65, -46054.88, 0.000, 0.000, 0.000, 16:37:56.689
35, -8609.02, -1.70, -76057.69, -60277.00, 187500.00, -57480.84, -64854.57, -46133.75, 0.000, 0.000, 0.000, 16:37:56.689
36, -8669.30, -85.03, -76104.24, -60338.00, 187500.00, -57537.95, -64932.13, -46186.28, 0.000, 0.000, 0.000, 16:37:56.689
37, -8721.94, -257.18, -76005.72, -60246.64, 187500.00, -57444.18, -64857.03, -46096.80, 0.000, 0.000, 0.000, 16:37:56.689
38, -8734.97, -269.72, -76014.93, -60243.36, 187500.00, -57446.91, -64840.22, -46099.38, 0.000, 0.978, 0.310, 16:37:56.689
39, -8635.84, -54.18, -76065.22, -60284.98, 187500.00, -57488.55, -64868.09, -46145.44, 0.000, 0.000, 0.000, 16:37:56.689
40, -8581.37, 17.05, -76040.37, -60270.34, 187500.00, -57469.89, -64862.97, -46125.46, 0.000, 0.000, 0.000, 16:37:56.690
41, -8695.81, -214.35, -76010.01, -60247.92, 187500.00, -57446.26, -64851.75, -46099.04, 0.000, 0.000, 0.000, 16:37:56.690
42, -8762.06, -305.59, -76033.05, -60261.17, 187500.00, -57460.95, -64854.61, -46117.77, 0.000, 0.000, 0.000, 16:37:56.690
43, -8681.80, -116.59, -76090.16, -60307.80, 187500.00, -57503.91, -64880.59, -46167.01, 0.000, 0.000, 0.000, 16:37:56.690
44, -8597.13, 9.75, -76077.78, -60309.41, 187500.00, -57513.38, -64896.43, -46170.93, 0.000, 0.000, 0.000, 16:37:56.690
45, -8653.79, -161.36, -75993.36, -60236.74, 187500.00, -57439.82, -64837.56, -46086.81, 0.000, 0.000, 0.000, 16:37:56.690
46, -8734.19, -286.59, -75993.00, -60228.74, 187500.00, -57426.46, -64827.75, -46083.84, 0.000, 0.000, 0.000, 16:37:56.690
47, -8678.18, -137.80, -76049.04, -60274.52, 187500.00, -57479.34, -64851.84, -46132.77, 0.000, 0.000, 0.000, 16:37:56.690
48, -8533.07, 80.06, -76007.13, -60234.26, 187500.00, -57433.70, -64813.42, -46094.04, 0.000, 0.986, 0.310, 16:37:56.691
49, -8618.63, -104.54, -75974.31, -60213.32, 187500.00, -57416.33, -64815.70, -46067.30, 0.000, 0.000, 0.000, 16:37:56.691
50, -8735.44, -295.51, -75991.32, -60226.64, 187500.00, -57433.30, -64830.38, -46080.51, 0.000, 0.000, 0.000, 16:37:56.691
51, -8648.34, -140.17, -75990.38, -60214.73, 187500.00, -57415.59, -64802.71, -46070.95, 0.000, 0.000, 0.000, 16:37:56.691
52, -8518.12, 85.70, -75998.86, -60218.04, 187500.00, -57417.29, -64799.02, -46071.13, 0.000, 0.000, 0.000, 16:37:56.691
53, -8575.94, -47.61, -75977.76, -60209.92, 187500.00, -57412.04, -64806.18, -46065.78, 0.000, 0.000, 0.000, 16:37:56.691
54, -8742.91, -308.19, -76017.99, -60252.30, 187500.00, -57456.99, -64851.21, -46102.53, 0.000, 0.000, 0.000, 16:37:56.691
55, -8673.75, -192.98, -75996.13, -60221.70, 187500.00, -57430.04, -64807.09, -46078.77, 0.000, 0.000, 0.000, 16:37:56.692
56, -8580.52, 16.03, -76050.55, -60271.45, 187500.00, -57473.64, -64849.54, -46125.41, 0.000, 0.000, 0.000, 16:37:56.692
57, -8592.95, -42.89, -76014.68, -60249.73, 187500.00, -57447.56, -64848.51, -46101.97, 0.000, 0.000, 0.000, 16:37:56.692
58, -8688.08, -248.13, -75972.03, -60211.77, 187500.00, -57407.57, -64823.19, -46067.57, 0.000, 0.976, 0.312, 16:37:56.692
59, -8666.58, -202.98, -75976.77, -60202.84, 187500.00, -57402.07, -64790.98, -46056.08, 0.000, 0.000, 0.000, 16:37:56.692
60, -8512.80, 69.54, -75977.63, -60195.57, 187500.00, -57396.19, -64772.80, -46052.62, 0.000, 0.000, 0.000, 16:37:56.692
61, -8513.26, 50.31, -75965.66, -60195.53, 187500.00, -57395.12, -64794.78, -46049.26, 0.000, 0.000, 0.000, 16:37:56.693
62, -8672.66, -227.25, -75965.17, -60198.92, 187500.00, -57396.64, -64802.89, -46047.39, 0.000, 0.000, 0.000, 16:37:56.693
63, -8706.34, -265.94, -75976.33, -60205.29, 187500.00, -57407.21, -64788.07, -46050.98, 0.000, 0.000, 0.000, 16:37:56.693
64, -8601.22, -46.80, -76023.58, -60244.07, 187500.00, -57455.92, -64804.45, -46084.36, 0.000, 0.000, 0.000, 16:37:56.693
65, -8564.90, 7.80, -76037.75, -60269.02, 187500.00, -57474.38, -64847.30, -46115.25, 0.000, 0.000, 0.000, 16:37:56.693
66, -8635.17, -177.63, -75955.83, -60192.84, 187500.00, -57393.27, -64793.82, -46044.05, 0.000, 0.000, 0.000, 16:37:56.694
67, -8691.32, -267.53, -75952.01, -60179.07, 187500.00, -57371.45, -64769.00, -46029.39, 0.000, 0.000, 0.000, 16:37:56.694
68, -8629.14, -100.85, -76022.68, -60234.29, 187500.00, -57430.66, -64804.32, -46086.37, -0.002, 0.964, 0.306, 16:37:56.694
69, -8513.91, 70.39, -75993.85, -60212.27, 187500.00, -57409.98, -64795.71, -46066.68, 0.000, 0.000, 0.000, 16:37:56.694
70, -8598.38, -122.17, -75949.82, -60180.37, 187500.00, -57375.88, -64781.32, -46029.10, 0.000, 0.000, 0.000, 16:37:56.694
71, -8702.65, -282.91, -75964.19, -60190.36, 187500.00, -57387.07, -64785.77, -46038.45, 0.000, 0.000, 0.000, 16:37:56.694
72, -8595.77, -90.03, -75960.26, -60178.63, 187500.00, -57378.71, -64763.73, -46034.73, 0.000, 0.000, 0.000, 16:37:56.694
73, -8503.30, 88.42, -75989.76, -60206.86, 187500.00, -57409.05, -64786.13, -46062.96, 0.000, 0.000, 0.000, 16:37:56.694
74, -8608.80, -108.20, -75998.77, -60225.81, 187500.00, -57423.73, -64818.87, -46075.57, 0.000, 0.000, 0.000, 16:37:57.184
75, -8661.84, -242.49, -75937.28, -60163.05, 187500.00, -57366.96, -64763.68, -46012.67, 0.000, 0.000, 0.000, 16:37:57.184
76, -8588.70, -103.31, -75939.29, -60154.15, 187500.00, -57359.85, -64737.94, -46004.07, 0.000, 0.000, 0.000, 16:37:57.184
77, -8513.98, 78.43, -76006.91, -60218.75, 187500.00, -57411.48, -64795.85, -46070.81, 0.006, 0.978, 0.308, 16:37:57.185
78, -8539.95, -19.24, -75962.85, -60190.65, 187500.00, -57384.17, -64791.65, -46041.29, 0.000, 0.000, 0.000, 16:37:57.185
79, -8644.31, -224.23, -75932.67, -60164.01, 187500.00, -57356.18, -64762.28, -46013.34, 0.000, 0.000, 0.000, 16:37:57.185
80, -8640.16, -178.41, -75966.73, -60188.13, 187500.00, -57386.40, -64768.09, -46048.01, 0.000, 0.000, 0.000, 16:37:57.185
81, -8510.40, 68.08, -75989.42, -60204.02, 187500.00, -57406.34, -64778.19, -46065.25, 0.000, 0.000, 0.000, 16:37:57.185
82, -8549.30, -10.82, -75999.70, -60226.93, 187500.00, -57423.69, -64818.36, -46076.84, 0.000, 0.000, 0.000, 16:37:57.185
83, -8605.91, -181.88, -75911.13, -60142.08, 187500.00, -57339.09, -64744.48, -45986.84, 0.000, 0.000, 0.000, 16:37:57.185
84, -8624.93, -187.44, -75938.93, -60159.54, 187500.00, -57358.13, -64744.87, -46007.89, 0.000, 0.000, 0.000, 16:37:57.185
85, -8535.82, 14.73, -76001.74, -60217.72, 187500.00, -57424.13, -64780.47, -46065.00, 0.000, 0.000, 0.000, 16:37:57.186
86, -8521.58, 28.95, -76001.90, -60228.54, 187500.00, -57436.83, -64814.85, -46085.79, 0.000, 0.000, 0.000, 16:37:57.186
87, -8590.42, -159.86, -75919.53, -60155.80, 187500.00, -57371.85, -64763.60, -46015.89, 0.006, 0.984, 0.306, 16:37:57.186
88, -8623.77, -210.55, -75927.63, -60153.50, 187500.00, -57374.38, -64747.86, -46018.33, 0.000, 0.000, 0.000, 16:37:57.186
89, -8532.22, -3.55, -75973.38, -60185.78, 187500.00, -57392.77, -64765.34, -46041.62, 0.000, 0.000, 0.000, 16:37:57.186
90, -8470.06, 89.27, -75969.46, -60189.49, 187500.00, -57383.32, -64775.27, -46036.41, 0.000, 0.000, 0.000, 16:37:57.186
91, -8566.10, -122.58, -75923.58, -60153.13, 187500.00, -57347.45, -64760.20, -46001.88, 0.000, 0.000, 0.000, 16:37:57.186
92, -8650.50, -246.85, -75943.09, -60167.74, 187500.00, -57362.93, -64762.79, -46015.58, 0.000, 0.000, 0.000, 16:37:57.187
93, -8604.15, -102.57, -76022.23, -60242.09, 187500.00, -57441.77, -64813.62, -46088.69, 0.000, 0.000, 0.000, 16:37:57.187
94, -8447.26, 112.16, -75961.71, -60186.63, 187500.00, -57396.06, -64768.71, -46040.52, 0.000, 0.000, 0.000, 16:37:57.187
95, -8506.43, -51.88, -75903.44, -60135.67, 187500.00, -57345.57, -64733.13, -45987.26, 0.000, 0.000, 0.000, 16:37:57.187
96, -8624.55, -234.38, -75924.52, -60155.76, 187500.00, -57362.29, -64754.32, -46008.23, 0.000, 0.000, 0.000, 16:37:57.187
97, -8549.36, -79.26, -75939.73, -60161.06, 187500.00, -57368.30, -64751.28, -46020.14, 0.004, 0.978, 0.306, 16:37:57.187
98, -8492.81, 67.26, -76009.36, -60233.41, 187500.00, -57443.42, -64824.37, -46093.79, 0.000, 0.000, 0.000, 16:37:57.187
99, -8548.49, -74.86, -75965.10, -60202.61, 187500.00, -57410.57, -64812.57, -46057.55, 0.000, 0.000, 0.000, 16:37:57.187
100, -8612.66, -226.42, -75903.64, -60139.63, 187500.00, -57343.64, -64752.04, -45994.75, 0.000, 0.000, 0.000, 16:37:57.188
101, -8563.60, -120.34, -75919.33, -60142.78, 187500.00, -57346.95, -64731.57, -46000.63, 0.000, 0.000, 0.000, 16:37:57.188
102, -8485.24, 69.72, -75989.83, -60211.17, 187500.00, -57416.91, -64785.57, -46065.58, 0.000, 0.000, 0.000, 16:37:57.188
103, -8521.25, -31.27, -75968.23, -60203.93, 187500.00, -57410.23, -64798.60, -46056.71, 0.000, 0.000, 0.000, 16:37:57.188
104, -8647.00, -261.87, -75952.45, -60186.96, 187500.00, -57399.86, -64788.50, -46048.32, 0.000, 0.000, 0.000, 16:37:57.188
105, -8590.54, -171.53, -75924.49, -60144.90, 187500.00, -57356.30, -64728.57, -46008.61, 0.000, 0.000, 0.000, 16:37:57.188
106, -8404.03, 129.55, -75894.48, -60108.98, 187500.00, -57311.14, -64674.68, -45956.26, 0.000, 0.000, 0.000, 16:37:57.188
107, -8469.17, 36.95, -75947.52, -60174.40, 187500.00, -57371.58, -64760.24, -46014.53, 0.006, 0.980, 0.308, 16:37:57.188
108, -8597.96, -206.06, -75926.66, -60160.39, 187500.00, -57360.77, -64766.32, -46006.73, 0.000, 0.000, 0.000, 16:37:57.189
109, -8596.06, -198.28, -75916.31, -60141.41, 187500.00, -57350.46, -64726.89, -45988.85, 0.000, 0.000, 0.000, 16:37:57.189
110, -8506.56, 10.93, -75977.51, -60193.76, 187500.00, -57402.47, -64767.39, -46051.36, 0.000, 0.000, 0.000, 16:37:57.189
111, -8454.66, 69.94, -75951.83, -60175.34, 187500.00, -57379.18, -64769.05, -46031.20, 0.000, 0.000, 0.000, 16:37:57.189
112, -8559.64, -149.76, -75906.30, -60136.38, 187500.00, -57343.09, -64745.38, -45988.29, 0.000, 0.000, 0.000, 16:37:57.189
113, -8604.39, -215.56, -75908.00, -60131.80, 187500.00, -57338.70, -64722.09, -45982.01, 0.000, 0.000, 0.000, 16:37:57.189
114, -8501.84, -1.34, -75944.03, -60156.63, 187500.00, -57366.89, -64724.52, -46010.44, 0.000, 0.000, 0.000, 16:37:57.190
115, -8474.57, 69.47, -75985.49, -60205.05, 187500.00, -57408.09, -64783.82, -46050.38, 0.000, 0.000, 0.000, 16:37:57.190
116, -8529.36, -101.01, -75896.75, -60126.68, 187500.00, -57332.54, -64730.36, -45980.09, 0.000, 0.000, 0.000, 16:37:57.190
117, -8572.85, -193.21, -75867.59, -60093.60, 187500.00, -57298.18, -64688.98, -45944.88, 0.004, 0.976, 0.312, 16:37:57.190
118, -8490.29, -17.48, -75904.53, -60118.39, 187500.00, -57325.85, -64695.13, -45964.73, 0.000, 0.000, 0.000, 16:37:57.190
119, -8428.87, 121.62, -75947.96, -60165.13, 187500.00, -57377.84, -64747.77, -46012.74, 0.000, 0.000, 0.000, 16:37:57.190
120, -8497.10, -46.38, -75896.44, -60127.69, 187500.00, -57332.42, -64732.53, -45977.80, 0.000, 0.000, 0.000, 16:37:57.190
121, -8573.82, -199.53, -75871.25, -60096.95, 187500.00, -57296.93, -64697.86, -45941.19, 0.000, 0.000, 0.000, 16:37:57.190
122, -8504.97, -59.25, -75889.06, -60103.17, 187500.00, -57306.07, -64675.60, -45946.04, 0.000, 0.000, 0.000, 16:37:57.190
123, -8421.49, 120.99, -75940.66, -60154.51, 187500.00, -57358.73, -64726.87, -46005.97, 0.000, 0.000, 0.000, 16:37:57.190
124, -8458.17, 3.55, -75888.91, -60121.54, 187500.00, -57328.49, -64708.61, -45967.86, 0.000, 0.000, 0.000, 16:37:57.190
125, -8550.37, -180.29, -75855.70, -60088.41, 187500.00, -57295.01, -64677.27, -45930.26, 0.000, 0.000, 0.000, 16:37:57.191
126, -8474.26, -50.45, -75835.06, -60053.14, 187500.00, -57259.31, -64618.69, -45893.20, 0.000, 0.000, 0.000, 16:37:57.191
127, -8398.33, 141.51, -75907.93, -60122.50, 187500.00, -57329.79, -64688.43, -45971.61, 0.006, 0.972, 0.306, 16:37:57.191
128, -8468.16, 18.57, -75926.57, -60157.62, 187500.00, -57364.83, -64748.62, -46007.24, 0.000, 0.000, 0.000, 16:37:57.191
129, -8566.80, -191.67, -75885.06, -60120.20, 187500.00, -57326.32, -64720.19, -45968.35, 0.000, 0.000, 0.000, 16:37:57.191
130, -8542.93, -141.62, -75873.59, -60101.47, 187500.00, -57309.36, -64685.57, -45951.59, 0.000, 0.000, 0.000, 16:37:57.191
131, -8426.38, 92.96, -75912.27, -60135.91, 187500.00, -57344.00, -64693.79, -45977.22, 0.000, 0.000, 0.000, 16:37:57.191
132, -8445.65, 56.80, -75932.31, -60162.20, 187500.00, -57360.27, -64739.48, -46006.68, 0.000, 0.000, 0.000, 16:37:57.191
133, -8581.57, -194.21, -75919.15, -60153.77, 187500.00, -57358.89, -64745.27, -46000.83, 0.000, 0.000, 0.000, 16:37:57.192
134, -8583.54, -197.61, -75904.11, -60130.91, 187500.00, -57333.65, -64712.14, -45978.52, 0.000, 0.000, 0.000, 16:37:57.192
135, -8457.97, 45.02, -75925.05, -60140.88, 187500.00, -57337.92, -64708.66, -45989.41, 0.000, 0.000, 0.000, 16:37:57.192
136, -8396.72, 121.82, -75903.93, -60131.04, 187500.00, -57329.52, -64708.95, -45977.67, 0.000, 0.000, 0.000, 16:37:57.192
137, -8513.49, -114.80, -75880.02, -60114.39, 187500.00, -57316.29, -64711.81, -45961.27, 0.008, 0.974, 0.306, 16:37:57.192
138, -8588.32, -216.43, -75903.98, -60131.55, 187500.00, -57336.07, -64721.80, -45980.82, 0.000, 0.000, 0.000, 16:37:57.192
139, -8468.16, 0.92, -75912.40, -60129.81, 187500.00, -57331.91, -64698.11, -45981.92, 0.000, 0.000, 0.000, 16:37:57.192
140, -8380.36, 141.35, -75904.82, -60127.51, 187500.00, -57332.98, -64701.50, -45980.20, 0.000, 0.000, 0.000, 16:37:57.192
141, -8496.14, -85.65, -75886.94, -60121.68, 187500.00, -57328.29, -64709.32, -45961.64, 0.000, 0.000, 0.000, 16:37:57.192
142, -8581.10, -228.59, -75889.80, -60120.02, 187500.00, -57325.38, -64700.63, -45958.56, 0.000, 0.000, 0.000, 16:37:57.192
143, -8485.73, -46.98, -75907.10, -60125.48, 187500.00, -57331.48, -64700.59, -45972.82, 0.000, 0.000, 0.000, 16:37:57.192
144, -8342.21, 174.28, -75876.81, -60101.60, 187500.00, -57306.34, -64682.35, -45947.38, 0.000, 0.000, 0.000, 16:37:57.193
145, -8463.58, -40.68, -75894.16, -60130.19, 187500.00, -57332.20, -64720.41, -45974.56, 0.000, 0.000, 0.000, 16:37:57.193
146, -8588.01, -242.02, -75907.80, -60143.82, 187500.00, -57344.65, -64743.79, -45995.55, 0.000, 0.982, 0.308, 16:37:57.193
147, -8520.69, -107.04, -75925.43, -60146.89, 187500.00, -57346.13, -64724.04, -46001.72, 0.000, 0.000, 0.000, 16:37:57.193
148, -8393.06, 121.17, -75933.27, -60153.88, 187500.00, -57356.63, -64725.75, -46003.93, 0.000, 0.000, 0.000, 16:37:57.193
149, -8406.47, 33.28, -75866.09, -60100.15, 187500.00, -57312.26, -64695.82, -45944.57, 0.000, 0.000, 0.000, 16:37:57.193
150, -8460.07, -117.55, -75786.41, -60016.45, 187500.00, -57228.02, -64618.02, -45866.61, 0.000, 0.000, 0.000, 16:37:57.193
151, -8417.44, -30.60, -75792.73, -60012.40, 187500.00, -57220.00, -64585.68, -45860.77, 0.000, 0.000, 0.000, 16:37:57.193
152, -8317.24, 183.02, -75845.34, -60061.50, 187500.00, -57263.09, -64626.16, -45906.12, 0.000, 0.000, 0.000, 16:37:57.194
153, -8331.19, 123.74, -75825.41, -60051.56, 187500.00, -57253.50, -64642.92, -45895.19, 0.000, 0.000, 0.000, 16:37:57.194
154, -8439.82, -96.34, -75793.76, -60022.86, 187500.00, -57230.05, -64624.95, -45868.19, 0.000, 0.000, 0.000, 16:37:57.194
155, -8395.72, -38.47, -75761.59, -59981.24, 187500.00, -57188.52, -64570.03, -45831.51, 0.000, 0.000, 0.000, 16:37:57.194
156, -8315.79, 162.54, -75838.17, -60047.80, 187500.00, -57257.05, -64621.06, -45902.19, -0.002, 0.986, 0.306, 16:37:57.194
157, -8325.33, 147.07, -75853.41, -60077.64, 187500.00, -57287.77, -64666.34, -45929.88, 0.000, 0.000, 0.000, 16:37:57.194
158, -8442.43, -91.17, -75813.85, -60048.61, 187500.00, -57261.97, -64654.41, -45900.96, 0.000, 0.000, 0.000, 16:37:57.194
159, -8465.75, -126.53, -75811.30, -60033.99, 187500.00, -57244.31, -64627.32, -45883.68, 0.000, 0.000, 0.000, 16:37:57.194
160, -8410.67, 43.25, -75904.94, -60116.98, 187500.00, -57325.88, -64688.74, -45966.54, 0.000, 0.000, 0.000, 16:37:57.195
161, -8442.23, 37.06, -75987.79, -60212.38, 187500.00, -57422.86, -64795.20, -46061.18, 0.000, 0.000, 0.000, 16:37:57.195
162, -8598.78, -238.27, -76001.54, -60234.89, 187500.00, -57448.32, -64843.28, -46090.82, 0.000, 0.000, 0.000, 16:37:57.195
163, -8568.47, -244.62, -75900.69, -60130.10, 187500.00, -57342.10, -64726.96, -45981.36, 0.000, 0.000, 0.000, 16:37:57.195
164, -8392.86, 31.34, -75852.14, -60066.87, 187500.00, -57281.30, -64638.32, -45910.75, 0.000, 0.000, 0.000, 16:37:57.196
165, -8336.28, 147.88, -75889.53, -60111.98, 187500.00, -57335.22, -64684.63, -45952.95, 0.000, 0.000, 0.000, 16:37:57.196
166, -8417.42, -38.20, -75841.91, -60072.14, 187500.00, -57282.58, -64675.57, -45923.29, 0.002, 0.982, 0.310, 16:37:57.196
167, -8487.40, -168.22, -75816.60, -60043.42, 187500.00, -57248.45, -64638.07, -45893.20, 0.000, 0.000, 0.000, 16:37:57.197
168, -8368.11, 36.86, -75794.83, -60010.43, 187500.00, -57216.64, -64582.84, -45863.79, 0.000, 0.000, 0.000, 16:37:57.198
169, -8246.07, 243.77, -75792.62, -60015.44, 187500.00, -57223.19, -64591.78, -45871.12, 0.000, 0.000, 0.000, 16:37:57.198
170, -8324.26, 74.61, -75773.88, -60009.36, 187500.00, -57216.15, -64610.87, -45863.23, 0.000, 0.000, 0.000, 16:37:57.198
171, -8450.59, -134.42, -75786.76, -60018.75, 187500.00, -57223.23, -64620.86, -45867.10, 0.000, 0.000, 0.000, 16:37:57.198
172, -8377.34, -3.15, -75778.73, -60002.94, 187500.00, -57207.99, -64584.18, -45855.90, 0.000, 0.000, 0.000, 16:37:57.198
173, -8215.92, 262.39, -75762.82, -59984.50, 187500.00, -57192.99, -64560.02, -45839.00, 0.000, 0.000, 0.000, 16:37:57.198
174, -8292.09, 120.77, -75779.23, -60015.30, 187500.00, -57229.20, -64611.27, -45868.04, 0.000, 0.000, 0.000, 16:37:57.199
175, -8401.93, -87.98, -75752.43, -59987.32, 187500.00, -57202.89, -64585.34, -45838.96, 0.000, 0.000, 0.000, 16:37:57.199
176, -8383.83, -34.98, -75771.59, -59991.59, 187500.00, -57199.57, -64568.40, -45843.58, 0.006, 0.982, 0.312, 16:37:57.199
177, -8231.97, 224.95, -75770.35, -59985.55, 187500.00, -57202.02, -64550.76, -45843.36, 0.000, 0.000, 0.000, 16:37:57.199
178, -8212.39, 211.65, -75727.33, -59958.62, 187500.00, -57171.89, -64544.10, -45806.70, 0.000, 0.000, 0.000, 16:37:57.200
179, -8387.85, -74.65, -75758.80, -59993.45, 187500.00, -57200.37, -64589.30, -45841.01, 0.000, 0.000, 0.000, 16:37:57.200
180, -8379.04, -61.00, -75754.69, -59979.29, 187500.00, -57191.16, -64564.78, -45837.86, 0.000, 0.000, 0.000, 16:37:57.200
181, -8233.24, 204.83, -75761.68, -59977.17, 187500.00, -57187.29, -64548.13, -45830.17, 0.000, 0.000, 0.000, 16:37:57.200
182, -8183.22, 257.18, -75736.94, -59962.20, 187500.00, -57166.91, -64561.20, -45815.35, 0.000, 0.000, 0.000, 16:37:57.200
183, -8281.48, 39.54, -75687.85, -59921.98, 187500.00, -57125.96, -64519.27, -45765.57, 0.000, 0.000, 0.000, 16:37:57.200
184, -8355.13, -50.98, -75723.21, -59951.63, 187500.00, -57164.90, -64520.14, -45791.04, 0.000, 0.000, 0.000, 16:37:57.200
