%OpenBCI Raw EEG Data
%
%Sample Rate = 250.0 Hz
%First Column = SampleIndex
%Last Column = Timestamp 
%Other Columns = EEG data in microvolts followed by Accel Data (in G) interleaved with Aux Data
0, 50784.75, 59162.90, 57091.32, 35333.43, 35289.25, 29915.28, 36516.58, 78708.45, 0.048, 0.422, 0.282, 15:42:23.652
1, 50761.26, 59135.02, 57051.13, 35299.46, 35253.86, 29882.52, 36483.21, 78686.90, 0.000, 0.000, 0.000, 15:42:23.653
2, 50787.27, 59168.33, 57091.45, 35350.82, 35306.95, 29933.88, 36543.38, 78661.55, 0.000, 0.000, 0.000, 15:42:23.653
3, 50752.83, 59142.22, 57054.48, 35319.06, 35281.85, 29902.81, 36514.95, 78632.74, 0.000, 0.000, 0.000, 15:42:23.654
4, 50768.54, 59150.85, 57041.56, 35309.45, 35273.87, 29892.95, 36504.93, 78653.48, 0.000, 0.000, 0.000, 15:42:23.654
5, 50744.23, 59121.19, 56995.05, 35269.84, 35238.80, 29859.05, 36476.35, 78642.04, 0.000, 0.000, 0.000, 15:42:23.655
6, 50744.70, 59125.55, 57004.75, 35288.71, 35261.46, 29879.23, 36499.57, 78599.55, 0.000, 0.000, 0.000, 15:42:23.655
7, 50764.41, 59149.60, 57016.79, 35305.72, 35279.59, 29895.28, 36512.11, 78605.96, 0.074, 0.634, 0.422, 15:42:23.656
8, 50760.92, 59139.00, 56991.96, 35283.34, 35263.34, 29877.06, 36494.43, 78615.84, 0.000, 0.000, 0.000, 15:42:23.656
9, 50719.14, 59089.72, 56923.88, 35219.33, 35200.15, 29812.55, 36428.87, 78591.37, 0.000, 0.000, 0.000, 15:42:23.656
10, 50726.25, 59100.11, 56942.61, 35244.90, 35228.72, 29838.44, 36462.85, 78568.37, 0.000, 0.000, 0.000, 15:42:23.657
11, 50733.83, 59115.82, 56956.96, 35265.93, 35254.91, 29864.34, 36488.73, 78579.48, 0.000, 0.000, 0.000, 15:42:23.657
12, 50737.72, 59113.70, 56940.78, 35252.88, 35246.75, 29848.45, 36474.83, 78596.62, 0.000, 0.000, 0.000, 15:42:23.658
13, 50740.65, 59107.49, 56908.55, 35226.06, 35217.27, 29818.52, 36438.57, 78607.41, 0.000, 0.000, 0.000, 15:42:23.658
14, 50741.77, 59110.44, 56912.93, 35243.47, 35233.16, 29839.89, 36459.96, 78596.30, 0.000, 0.000, 0.000, 15:42:23.658
15, 50781.33, 59161.45, 56963.31, 35306.39, 35292.26, 29903.77, 36521.74, 78613.27, 0.000, 0.000, 0.000, 15:42:23.659
16, 50813.98, 59195.82, 56977.07, 35327.64, 35317.01, 29925.32, 36540.50, 78657.44, 0.090, 0.736, 0.492, 15:42:23.659
17, 50797.76, 59169.98, 56926.05, 35280.57, 35271.05, 29879.01, 36497.22, 78661.46, 0.000, 0.000, 0.000, 15:42:23.660
18, 50776.21, 59149.84, 56907.50, 35267.74, 35262.04, 29866.71, 36487.84, 78626.26, 0.000, 0.000, 0.000, 15:42:23.660
19, 50799.30, 59180.45, 56943.61, 35308.63, 35307.51, 29905.85, 36527.98, 78618.66, 0.000, 0.000, 0.000, 15:42:23.660
20, 50778.73, 59157.22, 56904.23, 35273.76, 35276.86, 29868.75, 36500.29, 78624.05, 0.000, 0.000, 0.000, 15:42:23.661
21, 50753.34, 59122.95, 56851.39, 35222.75, 35222.57, 29816.47, 36446.39, 78621.56, 0.000, 0.000, 0.000, 15:42:23.662
22, 50722.30, 59090.37, 56812.68, 35192.42, 35191.93, 29790.76, 36406.34, 78577.29, 0.000, 0.000, 0.000, 15:42:23.662
23, 50752.00, 59127.27, 56856.82, 35246.09, 35249.95, 29846.08, 36459.67, 78560.91, 0.000, 0.000, 0.000, 15:42:23.663
24, 50770.96, 59149.44, 56868.29, 35263.43, 35269.73, 29861.73, 36491.73, 78595.81, 0.000, 0.000, 0.000, 15:42:23.664
25, 50758.29, 59131.52, 56830.38, 35228.65, 35236.36, 29827.04, 36460.19, 78614.01, 0.000, 0.000, 0.000, 15:42:23.664
26, 50725.52, 59093.56, 56787.02, 35190.68, 35205.07, 29790.31, 36424.85, 78595.17, 0.094, 0.796, 0.524, 15:42:23.664
27, 50771.02, 59142.29, 56845.43, 35260.68, 35269.96, 29860.50, 36491.70, 78580.26, 0.000, 0.000, 0.000, 15:42:23.665
28, 50829.63, 59205.32, 56894.15, 35316.09, 35329.75, 29914.41, 36556.66, 78634.22, 0.000, 0.000, 0.000, 15:42:23.665
29, 50843.06, 59211.96, 56878.80, 35299.95, 35319.06, 29899.95, 36540.09, 78665.33, 0.000, 0.000, 0.000, 15:42:23.665
30, 50774.02, 59135.72, 56787.24, 35210.28, 35231.04, 29813.34, 36442.98, 78619.15, 0.000, 0.000, 0.000, 15:42:23.679
31, 50803.64, 59172.62, 56829.82, 35261.57, 35279.34, 29868.59, 36494.39, 78593.54, 0.000, 0.000, 0.000, 15:42:23.680
32, 50831.06, 59201.90, 56852.98, 35285.04, 35309.68, 29889.62, 36523.38, 78599.33, 0.000, 0.000, 0.000, 15:42:23.681
33, 50811.88, 59174.59, 56810.29, 35242.84, 35276.73, 29846.69, 36483.70, 78595.30, 0.000, 0.000, 0.000, 15:42:23.683
34, 50819.46, 59175.59, 56791.49, 35227.44, 35265.15, 29834.62, 36468.50, 78610.37, 0.000, 0.000, 0.000, 15:42:23.684
35, 50844.70, 59203.15, 56826.29, 35270.40, 35316.09, 29884.30, 36517.83, 78604.91, 0.000, 0.000, 0.000, 15:42:23.685
36, 50850.84, 59218.71, 56838.16, 35287.88, 35344.52, 29905.16, 36543.09, 78609.95, 0.102, 0.824, 0.542, 15:42:23.685
37, 50843.60, 59210.46, 56811.74, 35263.41, 35328.77, 29882.96, 36527.33, 78622.75, 0.000, 0.000, 0.000, 15:42:23.685
38, 50827.62, 59186.16, 56771.04, 35222.53, 35294.43, 29839.60, 36489.42, 78624.59, 0.000, 0.000, 0.000, 15:42:23.685
39, 50820.38, 59180.76, 56766.99, 35225.81, 35294.83, 29839.33, 36490.12, 78579.14, 0.000, 0.000, 0.000, 15:42:23.686
40, 50850.95, 59221.57, 56811.92, 35281.96, 35345.73, 29895.32, 36543.18, 78576.62, 0.000, 0.000, 0.000, 15:42:23.686
41, 50912.38, 59282.50, 56861.43, 35340.07, 35396.51, 29950.40, 36593.85, 78647.92, 0.000, 0.000, 0.000, 15:42:23.686
42, 50888.80, 59249.62, 56803.09, 35283.21, 35336.09, 29893.09, 36534.80, 78646.76, 0.000, 0.000, 0.000, 15:42:23.686
43, 50821.43, 59182.14, 56734.52, 35221.25, 35278.88, 29835.31, 36481.58, 78570.56, 0.000, 0.000, 0.000, 15:42:23.687
44, 50836.71, 59205.39, 56767.91, 35259.00, 35321.57, 29875.07, 36524.43, 78549.21, 0.000, 0.000, 0.000, 15:42:23.687
45, 50827.91, 59197.27, 56749.49, 35236.25, 35304.82, 29858.20, 36505.32, 78556.79, 0.000, 0.000, 0.000, 15:42:23.687
46, 50824.16, 59186.41, 56715.45, 35200.40, 35276.44, 29824.07, 36470.45, 78571.43, 0.094, 0.842, 0.552, 15:42:23.687
47, 50799.90, 59158.27, 56677.34, 35168.59, 35250.11, 29794.20, 36446.51, 78546.30, 0.000, 0.000, 0.000, 15:42:23.688
48, 50819.02, 59184.29, 56711.92, 35211.73, 35301.43, 29837.74, 36503.82, 78521.25, 0.000, 0.000, 0.000, 15:42:23.688
49, 50824.71, 59193.83, 56708.90, 35214.90, 35305.00, 29848.36, 36508.64, 78544.72, 0.000, 0.000, 0.000, 15:42:23.688
50, 50835.31, 59198.04, 56691.93, 35200.64, 35291.86, 29837.28, 36492.73, 78574.42, 0.000, 0.000, 0.000, 15:42:23.688
51, 50811.44, 59171.84, 56653.20, 35168.46, 35259.83, 29806.07, 36463.83, 78566.52, 0.000, 0.000, 0.000, 15:42:23.689
52, 50796.15, 59161.15, 56651.16, 35172.35, 35260.79, 29807.68, 36463.20, 78508.35, 0.000, 0.000, 0.000, 15:42:23.689
53, 50790.05, 59161.78, 56642.18, 35169.26, 35261.21, 29805.33, 36455.85, 78494.88, 0.000, 0.000, 0.000, 15:42:23.689
54, 50798.65, 59162.41, 56621.41, 35154.06, 35248.61, 29792.39, 36439.60, 78510.97, 0.000, 0.000, 0.000, 15:42:23.689
55, 50767.16, 59121.46, 56563.41, 35099.75, 35201.29, 29742.10, 36392.42, 78507.73, 0.000, 0.000, 0.000, 15:42:23.690
56, 50779.83, 59135.70, 56587.29, 35128.27, 35237.75, 29774.91, 36430.37, 78478.41, 0.102, 0.838, 0.558, 15:42:23.690
57, 50762.42, 59127.05, 56569.45, 35114.10, 35229.57, 29766.02, 36420.42, 78448.34, 0.000, 0.000, 0.000, 15:42:23.690
58, 50794.02, 59155.43, 56579.93, 35126.50, 35242.57, 29776.95, 36432.63, 78478.29, 0.000, 0.000, 0.000, 15:42:23.690
59, 50777.08, 59130.11, 56530.27, 35078.96, 35201.09, 29730.68, 36386.31, 78476.91, 0.000, 0.000, 0.000, 15:42:23.691
60, 50768.27, 59125.82, 56518.51, 35074.71, 35196.64, 29731.42, 36383.03, 78424.58, 0.000, 0.000, 0.000, 15:42:23.718
61, 50787.54, 59160.77, 56531.02, 35093.27, 35215.91, 29753.50, 36407.14, 78420.84, 0.000, 0.000, 0.000, 15:42:23.718
62, 50802.85, 59168.55, 56533.86, 35094.65, 35224.92, 29754.84, 36415.08, 78458.98, 0.000, 0.000, 0.000, 15:42:23.718
63, 50783.70, 59128.16, 56506.53, 35064.72, 35203.95, 29727.55, 36386.98, 78473.09, 0.000, 0.000, 0.000, 15:42:23.719
64, 50773.89, 59117.19, 56506.64, 35073.04, 35214.37, 29737.21, 36398.12, 78445.23, 0.000, 0.000, 0.000, 15:42:23.719
65, 50802.83, 59153.84, 56546.40, 35118.57, 35258.07, 29779.12, 36439.18, 78433.70, 0.000, 0.000, 0.000, 15:42:23.719
66, 50805.94, 59155.48, 56532.28, 35109.20, 35247.00, 29764.79, 36423.46, 78448.67, 0.104, 0.846, 0.560, 15:42:23.719
67, 50814.72, 59154.07, 56504.89, 35087.48, 35225.21, 29737.32, 36394.00, 78458.87, 0.000, 0.000, 0.000, 15:42:23.720
68, 50811.79, 59150.49, 56497.25, 35089.53, 35223.98, 29737.72, 36398.65, 78430.13, 0.000, 0.000, 0.000, 15:42:23.720
69, 50813.63, 59161.27, 56513.88, 35114.32, 35252.77, 29760.97, 36436.20, 78394.59, 0.000, 0.000, 0.000, 15:42:23.737
70, 50808.55, 59161.00, 56497.25, 35100.71, 35241.64, 29748.12, 36426.19, 78402.92, 0.000, 0.000, 0.000, 15:42:23.738
71, 50761.12, 59107.44, 56423.91, 35029.54, 35175.50, 29676.05, 36358.93, 78387.01, 0.000, 0.000, 0.000, 15:42:23.738
72, 50760.34, 59102.57, 56418.46, 35027.33, 35175.95, 29674.89, 36356.81, 78391.01, 0.000, 0.000, 0.000, 15:42:23.738
73, 50816.09, 59162.41, 56489.43, 35101.78, 35251.67, 29751.31, 36428.29, 78392.98, 0.000, 0.000, 0.000, 15:42:23.738
74, 50820.98, 59174.72, 56484.33, 35092.64, 35255.00, 29747.18, 36419.28, 78388.52, 0.000, 0.000, 0.000, 15:42:23.739
75, 50841.59, 59188.04, 56477.52, 35077.95, 35255.74, 29735.06, 36418.77, 78414.03, 0.000, 0.000, 0.000, 15:42:23.739
76, 50831.08, 59168.39, 56447.27, 35048.63, 35238.06, 29716.60, 36393.46, 78426.75, 0.104, 0.854, 0.564, 15:42:23.739
77, 50864.88, 59207.60, 56494.17, 35105.49, 35296.67, 29784.26, 36446.98, 78422.79, 0.000, 0.000, 0.000, 15:42:23.739
78, 50854.48, 59200.92, 56476.02, 35094.45, 35289.18, 29773.46, 36441.97, 78412.53, 0.000, 0.000, 0.000, 15:42:23.740
79, 50860.34, 59198.62, 56454.83, 35081.57, 35281.09, 29760.70, 36430.08, 78433.81, 0.000, 0.000, 0.000, 15:42:23.740
80, 50863.09, 59196.22, 56430.24, 35066.18, 35266.74, 29748.85, 36414.97, 78442.05, 0.000, 0.000, 0.000, 15:42:23.740
81, 50858.13, 59194.88, 56434.31, 35080.10, 35283.99, 29769.86, 36431.13, 78391.84, 0.000, 0.000, 0.000, 15:42:23.740
82, 50886.18, 59228.59, 56455.50, 35105.13, 35313.30, 29796.71, 36455.87, 78399.81, 0.000, 0.000, 0.000, 15:42:23.740
83, 50906.21, 59245.96, 56448.19, 35102.27, 35313.52, 29796.64, 36450.46, 78435.53, 0.000, 0.000, 0.000, 15:42:23.741
84, 50912.94, 59248.37, 56424.77, 35084.93, 35293.22, 29780.10, 36430.26, 78468.26, 0.000, 0.000, 0.000, 15:42:23.763
85, 50887.41, 59221.50, 56401.68, 35069.91, 35288.22, 29765.50, 36428.16, 78419.82, 0.110, 0.844, 0.564, 15:42:23.772
86, 50886.92, 59227.89, 56407.02, 35084.64, 35309.83, 29783.79, 36453.68, 78408.38, 0.000, 0.000, 0.000, 15:42:23.772
87, 50862.46, 59197.09, 56359.72, 35040.02, 35270.89, 29738.35, 36410.30, 78401.38, 0.000, 0.000, 0.000, 15:42:23.772
88, 50830.97, 59159.79, 56304.47, 34986.65, 35218.05, 29688.28, 36348.94, 78388.10, 0.000, 0.000, 0.000, 15:42:23.773
89, 50850.73, 59184.15, 56333.08, 35021.61, 35254.15, 29721.14, 36380.95, 78372.73, 0.000, 0.000, 0.000, 15:42:23.773
90, 50863.83, 59204.49, 56357.84, 35052.86, 35284.35, 29754.33, 36418.21, 78353.97, 0.000, 0.000, 0.000, 15:42:23.773
91, 50884.21, 59226.15, 56364.68, 35062.80, 35293.76, 29766.33, 36430.62, 78393.63, 0.000, 0.000, 0.000, 15:42:23.773
92, 50847.78, 59183.48, 56297.36, 34995.66, 35231.80, 29698.34, 36359.83, 78393.24, 0.000, 0.000, 0.000, 15:42:23.774
93, 50816.55, 59153.15, 56263.23, 34971.09, 35208.67, 29675.65, 36343.46, 78358.30, 0.000, 0.000, 0.000, 15:42:23.774
94, 50855.56, 59197.59, 56317.32, 35036.78, 35273.49, 29736.71, 36414.99, 78350.26, 0.000, 0.000, 0.000, 15:42:23.774
95, 50876.01, 59220.43, 56325.14, 35047.76, 35288.57, 29747.62, 36422.79, 78378.02, 0.118, 0.836, 0.562, 15:42:23.775
96, 50855.20, 59192.31, 56276.21, 35003.34, 35249.06, 29707.99, 36378.16, 78382.49, 0.000, 0.000, 0.000, 15:42:23.775
97, 50840.47, 59173.89, 56246.69, 34981.73, 35228.43, 29687.72, 36356.09, 78375.36, 0.000, 0.000, 0.000, 15:42:23.775
98, 50853.30, 59195.55, 56275.79, 35019.13, 35266.98, 29727.95, 36399.50, 78351.91, 0.000, 0.000, 0.000, 15:42:23.776
99, 50878.13, 59224.03, 56295.06, 35042.75, 35293.65, 29750.19, 36425.50, 78380.70, 0.000, 0.000, 0.000, 15:42:23.776
100, 50904.00, 59242.54, 56294.66, 35043.15, 35297.34, 29750.80, 36423.71, 78410.32, 0.000, 0.000, 0.000, 15:42:23.776
101, 50882.49, 59218.62, 56259.88, 35012.53, 35266.04, 29724.53, 36394.54, 78404.58, 0.000, 0.000, 0.000, 15:42:23.776
102, 50916.51, 59256.68, 56309.18, 35066.98, 35324.74, 29784.46, 36454.09, 78395.70, 0.000, 0.000, 0.000, 15:42:23.777
103, 50894.83, 59241.06, 56285.91, 35046.26, 35307.26, 29766.20, 36437.99, 78380.99, 0.000, 0.000, 0.000, 15:42:23.777
104, 50881.91, 59220.77, 56253.89, 35012.40, 35286.09, 29732.09, 36418.90, 78383.41, 0.000, 0.000, 0.000, 15:42:23.777
105, 50851.09, 59179.08, 56197.07, 34955.13, 35233.43, 29675.14, 36366.53, 78362.27, 0.122, 0.838, 0.558, 15:42:23.777
106, 50838.66, 59172.08, 56200.31, 34964.77, 35244.86, 29686.80, 36378.43, 78313.20, 0.000, 0.000, 0.000, 15:42:23.778
107, 50812.00, 59154.58, 56177.73, 34947.82, 35226.35, 29671.13, 36357.30, 78282.52, 0.000, 0.000, 0.000, 15:42:23.778
108, 50791.75, 59128.09, 56138.33, 34911.21, 35190.90, 29632.56, 36319.55, 78274.40, 0.000, 0.000, 0.000, 15:42:23.778
109, 50827.08, 59157.51, 56147.04, 34924.58, 35207.06, 29645.88, 36335.31, 78315.84, 0.000, 0.000, 0.000, 15:42:23.778
110, 50848.29, 59182.34, 56174.36, 34957.08, 35243.27, 29678.96, 36374.64, 78300.62, 0.000, 0.000, 0.000, 15:42:23.778
111, 50833.74, 59176.60, 56171.34, 34957.95, 35251.07, 29677.51, 36380.21, 78270.17, 0.000, 0.000, 0.000, 15:42:23.779
112, 50819.50, 59159.39, 56136.00, 34926.23, 35216.82, 29650.66, 36345.05, 78287.25, 0.000, 0.000, 0.000, 15:42:23.779
113, 50797.31, 59129.82, 56086.63, 34878.40, 35173.13, 29602.16, 36296.48, 78293.93, 0.000, 0.000, 0.000, 15:42:23.779
114, 50795.54, 59126.35, 56088.37, 34883.90, 35186.07, 29608.60, 36308.24, 78268.43, 0.000, 0.000, 0.000, 15:42:23.779
115, 50784.88, 59119.67, 56083.81, 34886.56, 35192.44, 29614.85, 36311.84, 78228.04, 0.118, 0.844, 0.552, 15:42:23.780
116, 50740.94, 59073.00, 56020.98, 34828.84, 35141.86, 29557.43, 36261.97, 78204.10, 0.000, 0.000, 0.000, 15:42:23.780
117, 50761.23, 59087.19, 56011.52, 34823.39, 35141.23, 29553.95, 36257.41, 78239.30, 0.000, 0.000, 0.000, 15:42:23.781
118, 50735.84, 59059.30, 55979.81, 34795.27, 35118.37, 29529.36, 36230.93, 78202.94, 0.000, 0.000, 0.000, 15:42:23.781
119, 50736.36, 59066.14, 55995.21, 34818.65, 35138.91, 29552.87, 36259.91, 78173.37, 0.000, 0.000, 0.000, 15:42:23.781
120, 50753.50, 59088.69, 55999.75, 34830.03, 35149.64, 29558.28, 36259.76, 78185.70, 0.000, 0.000, 0.000, 15:42:24.139
121, 50742.10, 59071.16, 55966.22, 34796.88, 35119.53, 29530.90, 36235.48, 78195.12, 0.000, 0.000, 0.000, 15:42:24.140
122, 50741.59, 59066.67, 55959.22, 34792.70, 35122.95, 29533.47, 36241.14, 78211.32, 0.000, 0.000, 0.000, 15:42:24.140
123, 50754.48, 59084.09, 55983.77, 34825.89, 35153.32, 29566.53, 36273.30, 78180.79, 0.000, 0.000, 0.000, 15:42:24.140
124, 50787.14, 59119.63, 56009.36, 34853.77, 35184.28, 29593.13, 36298.41, 78212.95, 0.000, 0.000, 0.000, 15:42:24.140
125, 50765.57, 59088.38, 55958.39, 34803.97, 35144.23, 29543.66, 36255.89, 78205.98, 0.116, 0.846, 0.554, 15:42:24.141
126, 50708.08, 59025.79, 55880.50, 34731.35, 35070.96, 29470.21, 36184.03, 78160.00, 0.000, 0.000, 0.000, 15:42:24.141
127, 50714.63, 59040.10, 55902.58, 34765.16, 35101.49, 29507.10, 36216.29, 78123.03, 0.000, 0.000, 0.000, 15:42:24.141
128, 50778.60, 59109.81, 55965.14, 34829.29, 35175.86, 29576.36, 36286.71, 78173.62, 0.000, 0.000, 0.000, 15:42:24.141
129, 50809.49, 59130.93, 55973.64, 34833.79, 35196.60, 29576.25, 36306.14, 78215.26, 0.000, 0.000, 0.000, 15:42:24.142
130, 50783.03, 59099.38, 55924.91, 34787.98, 35152.01, 29533.78, 36260.32, 78212.66, 0.000, 0.000, 0.000, 15:42:24.142
131, 50790.29, 59111.55, 55947.06, 34817.45, 35180.08, 29566.69, 36289.73, 78184.79, 0.000, 0.000, 0.000, 15:42:24.142
132, 50802.65, 59129.62, 55963.47, 34836.94, 35201.83, 29583.81, 36308.38, 78180.05, 0.000, 0.000, 0.000, 15:42:24.142
133, 50807.48, 59129.95, 55951.18, 34824.29, 35193.45, 29569.88, 36293.71, 78196.37, 0.000, 0.000, 0.000, 15:42:24.142
134, 50788.37, 59106.17, 55910.41, 34780.72, 35156.81, 29529.20, 36255.38, 78196.37, 0.000, 0.000, 0.000, 15:42:24.143
135, 50775.03, 59093.96, 55906.32, 34781.97, 35156.14, 29531.55, 36260.07, 78162.10, 0.110, 0.840, 0.560, 15:42:24.143
136, 50759.94, 59081.83, 55895.99, 34777.77, 35151.16, 29529.13, 36254.06, 78124.62, 0.000, 0.000, 0.000, 15:42:24.143
137, 50763.74, 59083.19, 55884.07, 34767.27, 35137.16, 29520.42, 36249.36, 78150.59, 0.000, 0.000, 0.000, 15:42:24.143
138, 50736.27, 59048.37, 55831.57, 34715.86, 35098.27, 29469.01, 36200.41, 78149.14, 0.000, 0.000, 0.000, 15:42:24.144
139, 50717.09, 59027.91, 55812.13, 34705.44, 35092.15, 29462.46, 36195.27, 78115.57, 0.000, 0.000, 0.000, 15:42:24.144
140, 50778.16, 59097.09, 55882.29, 34784.16, 35170.60, 29539.91, 36275.23, 78122.54, 0.000, 0.000, 0.000, 15:42:24.144
141, 50794.65, 59114.24, 55885.82, 34791.74, 35179.45, 29544.38, 36278.04, 78145.41, 0.000, 0.000, 0.000, 15:42:24.144
142, 50759.87, 59069.20, 55822.43, 34733.34, 35122.10, 29484.32, 36216.39, 78140.45, 0.000, 0.000, 0.000, 15:42:24.144
143, 50720.60, 59028.86, 55774.04, 34695.83, 35079.52, 29449.25, 36174.87, 78099.52, 0.000, 0.000, 0.000, 15:42:24.145
144, 50714.27, 59030.15, 55783.92, 34713.09, 35096.35, 29468.72, 36193.06, 78063.38, 0.000, 0.000, 0.000, 15:42:24.145
145, 50717.40, 59035.18, 55776.52, 34708.08, 35096.77, 29464.81, 36187.96, 78078.87, 0.112, 0.848, 0.558, 15:42:24.145
146, 50728.40, 59040.14, 55760.27, 34694.69, 35086.18, 29453.54, 36175.31, 78106.09, 0.000, 0.000, 0.000, 15:42:24.145
147, 50716.31, 59025.48, 55731.19, 34669.32, 35064.54, 29428.98, 36153.27, 78087.47, 0.000, 0.000, 0.000, 15:42:24.146
148, 50688.10, 59002.75, 55713.58, 34660.02, 35054.15, 29418.85, 36144.96, 78021.51, 0.000, 0.000, 0.000, 15:42:24.146
149, 50701.02, 59021.01, 55727.12, 34675.60, 35075.43, 29434.27, 36176.21, 78047.17, 0.000, 0.000, 0.000, 15:42:24.152
150, 50705.33, 59015.15, 55704.05, 34653.83, 35061.21, 29411.94, 36158.15, 78065.43, 0.000, 0.000, 0.000, 15:42:24.209
151, 50641.30, 58945.41, 55620.70, 34574.41, 34984.43, 29334.96, 36074.17, 78025.11, 0.000, 0.000, 0.000, 15:42:24.210
152, 50665.55, 58976.11, 55665.99, 34626.45, 35035.09, 29387.98, 36125.29, 78005.38, 0.000, 0.000, 0.000, 15:42:24.210
153, 50718.09, 59033.84, 55720.55, 34684.61, 35090.07, 29446.90, 36173.66, 78051.13, 0.000, 0.000, 0.000, 15:42:24.210
154, 50682.89, 58993.52, 55664.83, 34628.68, 35041.75, 29392.03, 36124.69, 78049.85, 0.112, 0.846, 0.562, 15:42:24.211
155, 50620.08, 58924.88, 55578.57, 34543.28, 34963.69, 29303.45, 36048.64, 78013.35, 0.000, 0.000, 0.000, 15:42:24.211
156, 50623.91, 58933.41, 55592.56, 34564.85, 34985.46, 29320.99, 36072.94, 77964.80, 0.000, 0.000, 0.000, 15:42:24.211
157, 50611.19, 58926.77, 55585.86, 34561.68, 34986.87, 29318.89, 36077.52, 77942.30, 0.000, 0.000, 0.000, 15:42:24.211
158, 50576.32, 58889.22, 55532.15, 34508.12, 34938.77, 29267.46, 36026.34, 77935.19, 0.000, 0.000, 0.000, 15:42:24.212
159, 50598.45, 58905.16, 55524.10, 34502.44, 34935.98, 29258.70, 36014.71, 77954.09, 0.000, 0.000, 0.000, 15:42:24.212
160, 50583.43, 58890.05, 55509.97, 34495.38, 34927.53, 29247.68, 36005.15, 77902.27, 0.000, 0.000, 0.000, 15:42:24.212
161, 50579.47, 58896.04, 55523.43, 34508.84, 34944.52, 29259.30, 36025.54, 77879.66, 0.000, 0.000, 0.000, 15:42:24.212
162, 50599.96, 58915.42, 55532.30, 34515.54, 34956.68, 29262.63, 36033.31, 77909.98, 0.000, 0.000, 0.000, 15:42:24.213
163, 50573.73, 58881.11, 55478.46, 34462.30, 34905.42, 29208.34, 35976.79, 77902.89, 0.000, 0.000, 0.000, 15:42:24.213
164, 50558.50, 58861.71, 55464.49, 34451.48, 34896.61, 29200.12, 35971.06, 77875.48, 0.112, 0.852, 0.566, 15:42:24.213
165, 50588.19, 58897.43, 55507.71, 34499.49, 34949.70, 29252.42, 36022.72, 77868.42, 0.000, 0.000, 0.000, 15:42:24.213
166, 50594.76, 58903.50, 55504.43, 34495.42, 34954.44, 29247.28, 36028.17, 77885.57, 0.000, 0.000, 0.000, 15:42:24.214
167, 50548.36, 58846.69, 55428.99, 34416.19, 34886.29, 29168.24, 35953.34, 77868.06, 0.000, 0.000, 0.000, 15:42:24.214
168, 50485.75, 58782.18, 55365.78, 34353.87, 34826.68, 29107.54, 35894.84, 77815.45, 0.000, 0.000, 0.000, 15:42:24.214
169, 50529.00, 58832.41, 55427.36, 34421.30, 34898.67, 29171.95, 35958.57, 77804.37, 0.000, 0.000, 0.000, 15:42:24.214
170, 50554.46, 58857.30, 55441.69, 34437.82, 34917.69, 29191.11, 35981.70, 77826.52, 0.000, 0.000, 0.000, 15:42:24.214
171, 50572.25, 58869.84, 55439.52, 34436.23, 34917.63, 29190.95, 35990.64, 77863.77, 0.000, 0.000, 0.000, 15:42:24.215
172, 50520.37, 58816.07, 55368.71, 34370.12, 34850.37, 29123.61, 35917.48, 77824.37, 0.000, 0.000, 0.000, 15:42:24.215
173, 50534.99, 58838.48, 55396.90, 34410.66, 34889.60, 29166.81, 35963.22, 77802.76, 0.000, 0.000, 0.000, 15:42:24.215
174, 50557.25, 58863.96, 55416.30, 34434.45, 34912.84, 29187.02, 35988.39, 77822.11, 0.108, 0.848, 0.564, 15:42:24.215
175, 50546.37, 58846.35, 55378.59, 34400.18, 34882.94, 29152.44, 35950.93, 77820.01, 0.000, 0.000, 0.000, 15:42:24.215
176, 50518.74, 58815.62, 55330.38, 34356.15, 34846.55, 29111.40, 35917.04, 77812.92, 0.000, 0.000, 0.000, 15:42:24.216
177, 50509.98, 58811.37, 55329.39, 34366.95, 34852.80, 29121.73, 35922.05, 77772.58, 0.000, 0.000, 0.000, 15:42:24.216
178, 50536.02, 58843.00, 55355.03, 34400.14, 34881.91, 29157.29, 35949.85, 77790.02, 0.000, 0.000, 0.000, 15:42:24.216
179, 50534.18, 58837.86, 55335.21, 34379.53, 34865.39, 29138.92, 35938.23, 77816.26, 0.000, 0.000, 0.000, 15:42:24.216
180, 50525.80, 58822.82, 55299.91, 34343.34, 34836.62, 29106.46, 35904.86, 77825.80, 0.000, 0.000, 0.000, 15:42:24.220
181, 50513.06, 58814.23, 55296.34, 34346.18, 34838.72, 29112.74, 35912.05, 77779.46, 0.000, 0.000, 0.000, 15:42:24.220
182, 50511.43, 58818.12, 55304.11, 34353.63, 34852.54, 29120.72, 35918.27, 77767.05, 0.000, 0.000, 0.000, 15:42:24.220
183, 50511.01, 58811.35, 55285.68, 34334.20, 34836.42, 29100.43, 35896.81, 77776.94, 0.000, 0.000, 0.000, 15:42:24.221
184, 50481.88, 58771.54, 55230.13, 34278.93, 34781.73, 29043.21, 35839.50, 77766.14, 0.102, 0.844, 0.560, 15:42:24.221
185, 50445.36, 58735.64, 55202.08, 34254.05, 34762.75, 29023.67, 35827.74, 77704.59, 0.000, 0.000, 0.000, 15:42:24.221
186, 50462.44, 58760.63, 55234.49, 34291.06, 34805.42, 29062.07, 35874.68, 77679.64, 0.000, 0.000, 0.000, 15:42:24.222
187, 50474.68, 58771.29, 55232.93, 34290.05, 34811.45, 29060.64, 35880.09, 77703.84, 0.000, 0.000, 0.000, 15:42:24.222
188, 50466.77, 58753.57, 55195.75, 34252.80, 34776.59, 29023.38, 35842.50, 77723.90, 0.000, 0.000, 0.000, 15:42:24.222
189, 50465.59, 58751.22, 55191.91, 34252.55, 34771.63, 29028.23, 35840.98, 77706.06, 0.000, 0.000, 0.000, 15:42:24.222
190, 50454.75, 58748.63, 55190.88, 34260.21, 34779.58, 29033.42, 35843.95, 77653.09, 0.000, 0.000, 0.000, 15:42:24.223
191, 50410.00, 58706.05, 55136.30, 34206.84, 34730.99, 28974.14, 35788.81, 77616.14, 0.000, 0.000, 0.000, 15:42:24.223
192, 50388.34, 58677.82, 55086.74, 34155.23, 34684.14, 28926.60, 35735.92, 77605.99, 0.000, 0.000, 0.000, 15:42:24.223
193, 50352.53, 58639.38, 55046.51, 34119.33, 34652.89, 28902.10, 35726.60, 77592.58, 0.000, 0.000, 0.000, 15:42:24.223
194, 50366.91, 58661.75, 55080.93, 34160.80, 34699.32, 28946.42, 35776.25, 77571.19, 0.106, 0.842, 0.558, 15:42:24.223
195, 50395.14, 58692.28, 55098.34, 34180.71, 34727.14, 28966.72, 35792.41, 77592.16, 0.000, 0.000, 0.000, 15:42:24.224
196, 50414.80, 58704.11, 55091.37, 34173.94, 34729.02, 28957.18, 35782.46, 77610.57, 0.000, 0.000, 0.000, 15:42:24.224
197, 50407.52, 58694.14, 55066.65, 34152.48, 34708.75, 28937.26, 35762.59, 77601.86, 0.000, 0.000, 0.000, 15:42:24.224
198, 50396.90, 58686.31, 55073.22, 34166.79, 34725.18, 28955.81, 35784.74, 77554.60, 0.000, 0.000, 0.000, 15:42:24.224
199, 50385.61, 58679.59, 55062.27, 34162.38, 34720.77, 28953.35, 35779.66, 77561.71, 0.000, 0.000, 0.000, 15:42:24.224
200, 50343.37, 58633.70, 54996.00, 34098.84, 34662.66, 28889.61, 35717.30, 77548.16, 0.000, 0.000, 0.000, 15:42:24.225
201, 50310.60, 58597.29, 54941.91, 34047.81, 34615.88, 28840.97, 35671.17, 77534.04, 0.000, 0.000, 0.000, 15:42:24.225
202, 50311.85, 58601.40, 54958.38, 34070.07, 34640.09, 28863.23, 35697.12, 77490.12, 0.000, 0.000, 0.000, 15:42:24.225
203, 50295.36, 58587.27, 54941.61, 34057.53, 34629.11, 28850.74, 35680.49, 77460.64, 0.000, 0.000, 0.000, 15:42:24.225
204, 50314.47, 58601.06, 54940.74, 34057.15, 34634.34, 28850.07, 35681.18, 77491.06, 0.110, 0.840, 0.558, 15:42:24.225
205, 50283.55, 58564.23, 54880.73, 33997.85, 34579.87, 28795.46, 35630.31, 77483.41, 0.000, 0.000, 0.000, 15:42:24.226
206, 50268.49, 58551.89, 54874.89, 33999.02, 34582.91, 28794.75, 35637.69, 77438.20, 0.000, 0.000, 0.000, 15:42:24.226
207, 50278.88, 58571.02, 54894.74, 34024.02, 34609.17, 28819.42, 35664.35, 77432.68, 0.000, 0.000, 0.000, 15:42:24.226
208, 50312.72, 58601.36, 54909.20, 34040.16, 34627.46, 28835.61, 35678.95, 77475.73, 0.000, 0.000, 0.000, 15:42:24.226
209, 50272.27, 58552.38, 54844.27, 33973.96, 34570.23, 28778.47, 35624.39, 77467.68, 0.000, 0.000, 0.000, 15:42:24.226
210, 50256.51, 58534.01, 54831.02, 33965.64, 34561.85, 28770.61, 35617.46, 77419.91, 0.000, 0.000, 0.000, 15:42:24.230
211, 50294.35, 58576.84, 54882.76, 34020.56, 34619.23, 28825.46, 35673.25, 77421.41, 0.000, 0.000, 0.000, 15:42:24.232
212, 50291.89, 58574.40, 54865.77, 34005.59, 34608.84, 28814.95, 35661.22, 77439.27, 0.000, 0.000, 0.000, 15:42:24.232
213, 50257.20, 58532.76, 54800.98, 33942.98, 34546.65, 28748.86, 35595.20, 77429.95, 0.000, 0.000, 0.000, 15:42:24.232
214, 50215.36, 58491.61, 54761.14, 33909.14, 34507.40, 28709.25, 35551.41, 77381.52, 0.110, 0.848, 0.566, 15:42:24.232
215, 50213.84, 58497.22, 54781.11, 33932.52, 34523.74, 28730.57, 35578.68, 77343.49, 0.000, 0.000, 0.000, 15:42:24.233
216, 50226.80, 58510.90, 54793.42, 33940.34, 34534.00, 28727.67, 35587.71, 77362.73, 0.000, 0.000, 0.000, 15:42:24.233
217, 50222.20, 58499.12, 54773.98, 33914.88, 34510.24, 28696.58, 35557.00, 77379.37, 0.000, 0.000, 0.000, 15:42:24.233
218, 50181.74, 58455.53, 54732.60, 33872.12, 34460.44, 28650.89, 35512.32, 77341.80, 0.000, 0.000, 0.000, 15:42:24.233
219, 50196.23, 58478.31, 54777.20, 33919.78, 34495.96, 28694.48, 35558.20, 77314.75, 0.000, 0.000, 0.000, 15:42:24.233
220, 50206.35, 58487.29, 54794.45, 33929.59, 34499.29, 28698.21, 35562.21, 77332.77, 0.000, 0.000, 0.000, 15:42:24.234
221, 50212.95, 58483.29, 54793.20, 33919.40, 34485.41, 28673.22, 35552.19, 77356.86, 0.000, 0.000, 0.000, 15:42:24.234
222, 50214.29, 58481.23, 54791.28, 33922.41, 34478.48, 28686.92, 35558.23, 77374.20, 0.000, 0.000, 0.000, 15:42:24.234
223, 50218.27, 58486.76, 54817.34, 33950.09, 34499.29, 28710.50, 35581.96, 77335.38, 0.110, 0.894, 0.570, 15:42:24.234
224, 50218.91, 58488.77, 54815.30, 33950.09, 34501.73, 28693.07, 35575.37, 77324.20, 0.000, 0.000, 0.000, 15:42:24.234
225, 50251.50, 58513.89, 54818.39, 33960.50, 34513.64, 28694.48, 35602.53, 77369.63, 0.000, 0.000, 0.000, 15:42:24.235
226, 50254.18, 58508.24, 54785.31, 33943.16, 34503.11, 28696.20, 35591.02, 77388.98, 0.000, 0.000, 0.000, 15:42:24.235
227, 50265.14, 58519.99, 54795.37, 33968.41, 34528.73, 28719.11, 35605.25, 77341.26, 0.000, 0.000, 0.000, 15:42:24.235
228, 50313.98, 58574.84, 54844.50, 34019.71, 34594.49, 28760.62, 35639.30, 77360.88, 0.000, 0.000, 0.000, 15:42:24.235
229, 50371.29, 58627.64, 54875.57, 34047.74, 34615.39, 28788.80, 35635.27, 77429.30, 0.000, 0.000, 0.000, 15:42:24.235
230, 50346.88, 58595.90, 54831.82, 33996.22, 34592.32, 28759.97, 35622.71, 77444.91, 0.000, 0.000, 0.000, 15:42:24.236
231, 50342.70, 58597.22, 54853.13, 34019.53, 34628.13, 28794.66, 35690.39, 77440.09, 0.000, 0.000, 0.000, 15:42:24.236
232, 50436.69, 58705.34, 54963.47, 34128.68, 34726.41, 28891.95, 35800.03, 77501.95, 0.000, 0.000, 0.000, 15:42:24.236
233, 50477.19, 58748.47, 54994.05, 34151.86, 34742.16, 28908.43, 35819.70, 77557.84, 0.102, 0.868, 0.550, 15:42:24.236
234, 50469.86, 58735.64, 54971.03, 34123.38, 34737.83, 28896.98, 35771.29, 77567.59, 0.000, 0.000, 0.000, 15:42:24.236
235, 50513.89, 58781.49, 55028.72, 34185.88, 34778.84, 28965.87, 35817.08, 77580.06, 0.000, 0.000, 0.000, 15:42:24.237
236, 50502.63, 58781.73, 55041.01, 34196.52, 34779.71, 28963.99, 35821.75, 77560.46, 0.000, 0.000, 0.000, 15:42:24.237
237, 50551.29, 58832.00, 55086.18, 34235.36, 34807.99, 28983.60, 35853.52, 77598.84, 0.000, 0.000, 0.000, 15:42:24.237
238, 50560.72, 58830.75, 55061.91, 34213.75, 34771.56, 28965.92, 35824.30, 77601.68, 0.000, 0.000, 0.000, 15:42:24.237
239, 50527.08, 58797.27, 54999.97, 34166.27, 34712.44, 28919.33, 35775.39, 77549.27, 0.000, 0.000, 0.000, 15:42:24.237
240, 50543.57, 58820.76, 55013.63, 34196.47, 34736.35, 28957.76, 35805.75, 77512.12, 0.000, 0.000, 0.000, 15:42:24.653
241, 50460.58, 58722.30, 54927.76, 34112.25, 34673.95, 28876.02, 35730.00, 77454.23, 0.000, 0.000, 0.000, 15:42:24.653
242, 50378.95, 58620.89, 54815.06, 33989.45, 34562.19, 28752.14, 35602.77, 77379.59, 0.000, 0.000, 0.000, 15:42:24.653
243, 50286.15, 58514.03, 54668.81, 33844.09, 34428.91, 28591.14, 35439.16, 77209.96, 0.120, 0.886, 0.524, 15:42:24.653
244, 50177.34, 58404.86, 54546.91, 33741.68, 34314.40, 28516.20, 35313.39, 77025.47, 0.000, 0.000, 0.000, 15:42:24.653
245, 50057.49, 58289.91, 54394.42, 33617.56, 34198.01, 28429.36, 35206.39, 76938.52, 0.000, 0.000, 0.000, 15:42:24.654
246, 49903.15, 58120.17, 54149.47, 33406.67, 34038.96, 28235.77, 35060.63, 76844.18, 0.000, 0.000, 0.000, 15:42:24.654
247, 49706.72, 57907.89, 53834.00, 33149.04, 33818.05, 28020.79, 34834.01, 76673.27, 0.000, 0.000, 0.000, 15:42:24.654
248, 49632.74, 57829.97, 53683.03, 33064.13, 33756.12, 27945.65, 34722.11, 76481.77, 0.000, 0.000, 0.000, 15:42:24.654
249, 49471.70, 57664.68, 53444.94, 32888.78, 33582.64, 27780.49, 34561.14, 76309.44, 0.000, 0.000, 0.000, 15:42:24.654
250, 49309.24, 57489.38, 53216.55, 32702.01, 33441.47, 27606.84, 34368.85, 76177.89, 0.000, 0.000, 0.000, 15:42:24.655
251, 49106.54, 57279.52, 52949.02, 32473.51, 33219.03, 27360.97, 34177.74, 76012.89, 0.000, 0.000, 0.000, 15:42:24.655
252, 48889.30, 57066.50, 52708.00, 32283.99, 33047.34, 27179.59, 33967.86, 75760.59, 0.000, 0.000, 0.000, 15:42:24.655
253, 48739.74, 56927.63, 52529.46, 32151.78, 32907.20, 27032.89, 33823.17, 75577.91, 0.146, 0.792, 0.510, 15:42:24.655
254, 48534.20, 56725.15, 52262.64, 31936.64, 32688.38, 26819.95, 33619.82, 75361.67, 0.000, 0.000, 0.000, 15:42:24.655
255, 48319.62, 56508.25, 51975.36, 31677.65, 32483.99, 26555.30, 33395.47, 75153.40, 0.000, 0.000, 0.000, 15:42:24.656
0, 48137.16, 56341.82, 51758.05, 31454.83, 32361.57, 26395.93, 33206.18, 74916.41, 0.000, 0.000, 0.000, 15:42:24.656
1, 48045.03, 56275.77, 51637.98, 31343.98, 32295.30, 26346.69, 33096.03, 74772.59, 0.000, 0.000, 0.000, 15:42:24.656
2, 47932.40, 56177.46, 51509.53, 31222.59, 32194.98, 26230.73, 32958.50, 74712.45, 0.000, 0.000, 0.000, 15:42:24.656
3, 47845.50, 56101.80, 51439.16, 31116.04, 32065.74, 26115.49, 32869.38, 74668.55, 0.000, 0.000, 0.000, 15:42:24.656
4, 47776.09, 56044.96, 51460.11, 31082.49, 32049.76, 26100.44, 32845.20, 74605.56, 0.000, 0.000, 0.000, 15:42:24.657
5, 47814.43, 56105.07, 51616.95, 31182.65, 32140.87, 26156.90, 32931.67, 74604.45, 0.000, 0.000, 0.000, 15:42:24.657
6, 47952.58, 56250.60, 51831.19, 31359.52, 32258.01, 26280.53, 33073.85, 74738.62, 0.000, 0.000, 0.000, 15:42:24.657
7, 48071.27, 56370.81, 52014.92, 31515.58, 32347.24, 26405.88, 33213.24, 74920.02, 0.128, 0.766, 0.512, 15:42:24.657
8, 48244.61, 56547.92, 52285.07, 31747.28, 32523.26, 26586.91, 33447.13, 75115.74, 0.000, 0.000, 0.000, 15:42:24.657
9, 48403.77, 56711.56, 52535.14, 31980.85, 32704.91, 26772.16, 33655.98, 75280.88, 0.000, 0.000, 0.000, 15:42:24.658
10, 48597.86, 56903.56, 52802.11, 32222.52, 32895.02, 26976.90, 33866.20, 75536.76, 0.000, 0.000, 0.000, 15:42:24.658
11, 48866.88, 57158.08, 53103.45, 32498.41, 33110.53, 27199.01, 34089.07, 75825.66, 0.000, 0.000, 0.000, 15:42:24.658
12, 49095.74, 57374.82, 53355.91, 32737.55, 33314.22, 27415.20, 34315.47, 76031.83, 0.000, 0.000, 0.000, 15:42:24.658
13, 49400.10, 57679.97, 53707.69, 33082.12, 33604.53, 27733.22, 34684.52, 76278.16, 0.000, 0.000, 0.000, 15:42:24.658
14, 49717.03, 57995.71, 54040.17, 33410.76, 33939.69, 28042.23, 34982.20, 76607.52, 0.000, 0.000, 0.000, 15:42:24.661
15, 50014.29, 58281.43, 54336.64, 33690.58, 34281.72, 28317.94, 35229.16, 76930.84, 0.000, 0.000, 0.000, 15:42:24.661
16, 50274.59, 58539.42, 54583.18, 33940.72, 34504.95, 28578.36, 35465.98, 77207.77, 0.000, 0.000, 0.000, 15:42:24.661
17, 50595.86, 58866.04, 54920.54, 34286.82, 34832.38, 28911.36, 35813.04, 77456.70, 0.122, 0.836, 0.538, 15:42:24.662
18, 50875.05, 59149.60, 55186.61, 34566.28, 35092.86, 29190.06, 36085.62, 77697.97, 0.000, 0.000, 0.000, 15:42:24.662
19, 51088.89, 59360.15, 55356.80, 34746.03, 35273.89, 29369.05, 36260.63, 77955.93, 0.000, 0.000, 0.000, 15:42:24.662
20, 51191.28, 59456.40, 55403.29, 34798.38, 35324.11, 29427.48, 36315.53, 78186.04, 0.000, 0.000, 0.000, 15:42:24.662
21, 51187.84, 59450.48, 55376.11, 34776.65, 35324.41, 29406.69, 36295.16, 78285.51, 0.000, 0.000, 0.000, 15:42:24.663
22, 51114.97, 59377.23, 55272.89, 34685.93, 35211.35, 29308.75, 36197.71, 78249.86, 0.000, 0.000, 0.000, 15:42:24.663
23, 50839.69, 59090.70, 54949.30, 34387.98, 34922.10, 29038.29, 35869.48, 77977.50, 0.000, 0.000, 0.000, 15:42:24.663
24, 50282.19, 58513.31, 54344.09, 33789.71, 34323.76, 28424.85, 35278.56, 77481.78, 0.000, 0.000, 0.000, 15:42:24.663
25, 49865.76, 58087.62, 53940.99, 33409.13, 33908.22, 28049.18, 34916.26, 76983.92, 0.000, 0.000, 0.000, 15:42:24.664
26, 49888.51, 58105.79, 53985.54, 33482.18, 33949.71, 28112.28, 34981.46, 76824.75, 0.000, 0.000, 0.000, 15:42:24.664
27, 49974.39, 58174.01, 54057.31, 33571.74, 34011.66, 28192.52, 35050.62, 76857.23, 0.156, 0.912, 0.586, 15:42:24.664
28, 49812.40, 57988.27, 53862.58, 33388.16, 33797.98, 27990.93, 34868.05, 76786.40, 0.000, 0.000, 0.000, 15:42:24.665
29, 49532.80, 57696.51, 53580.50, 33127.39, 33524.17, 27719.02, 34619.90, 76534.09, 0.000, 0.000, 0.000, 15:42:24.665
30, 49424.15, 57589.16, 53494.81, 33048.37, 33446.19, 27632.63, 34533.55, 76363.23, 0.000, 0.000, 0.000, 15:42:24.665
31, 49345.23, 57506.07, 53404.89, 32958.32, 33390.27, 27549.87, 34448.02, 76284.69, 0.000, 0.000, 0.000, 15:42:24.665
32, 49192.84, 57341.57, 53205.73, 32774.43, 33210.71, 27379.68, 34274.48, 76172.10, 0.000, 0.000, 0.000, 15:42:24.665
33, 48970.50, 57120.95, 52957.09, 32544.72, 32989.81, 27157.73, 34052.30, 75951.23, 0.000, 0.000, 0.000, 15:42:24.665
34, 48839.36, 57004.90, 52828.86, 32435.38, 32895.20, 27059.31, 33958.31, 75755.73, 0.000, 0.000, 0.000, 15:42:24.666
35, 48713.64, 56893.52, 52676.33, 32304.30, 32791.19, 26950.23, 33843.45, 75627.21, 0.000, 0.000, 0.000, 15:42:24.666
36, 48505.88, 56698.04, 52418.88, 32067.94, 32593.16, 26730.99, 33628.11, 75466.77, 0.162, 0.840, 0.614, 15:42:24.666
37, 48206.88, 56418.50, 52080.25, 31758.79, 32320.04, 26445.15, 33348.45, 75218.18, 0.000, 0.000, 0.000, 15:42:24.666
38, 48034.21, 56276.68, 51904.70, 31620.74, 32201.29, 26337.95, 33242.65, 75001.77, 0.000, 0.000, 0.000, 15:42:24.666
39, 47975.18, 56244.88, 51826.32, 31565.09, 32192.39, 26296.33, 33202.58, 74922.62, 0.000, 0.000, 0.000, 15:42:24.667
40, 47960.43, 56240.03, 51779.63, 31523.42, 32191.38, 26263.03, 33176.38, 74901.88, 0.000, 0.000, 0.000, 15:42:24.667
41, 47875.38, 56165.15, 51669.43, 31416.81, 32115.28, 26171.79, 33090.86, 74856.99, 0.000, 0.000, 0.000, 15:42:24.667
42, 47796.81, 56104.53, 51617.62, 31371.41, 32083.94, 26141.41, 33069.36, 74778.41, 0.000, 0.000, 0.000, 15:42:24.667
43, 47810.52, 56142.53, 51645.34, 31407.08, 32116.28, 26188.42, 33130.34, 74789.41, 0.000, 0.000, 0.000, 15:42:24.667
44, 47791.58, 56132.71, 51629.24, 31377.71, 32162.08, 26175.01, 33090.55, 74811.71, 0.000, 0.000, 0.000, 15:42:24.667
45, 47687.04, 56035.06, 51528.70, 31263.70, 32021.73, 26048.90, 32981.52, 74754.55, 0.000, 0.000, 0.000, 15:42:24.668
46, 47651.13, 56008.06, 51544.57, 31269.91, 32015.43, 26036.12, 33014.02, 74688.04, 0.128, 0.818, 0.640, 15:42:24.668
47, 47760.71, 56134.13, 51700.88, 31416.36, 32143.51, 26178.61, 33154.86, 74765.11, 0.000, 0.000, 0.000, 15:42:24.668
48, 47843.32, 56223.98, 51796.99, 31499.04, 32207.66, 26265.62, 33232.15, 74895.04, 0.000, 0.000, 0.000, 15:42:24.669
49, 47834.16, 56209.02, 51780.47, 31471.39, 32170.28, 26230.35, 33203.87, 74936.91, 0.000, 0.000, 0.000, 15:42:24.669
50, 47839.10, 56215.04, 51805.93, 31496.58, 32180.83, 26248.39, 33236.28, 74921.84, 0.000, 0.000, 0.000, 15:42:24.669
51, 47956.18, 56339.49, 51955.71, 31644.17, 32324.55, 26394.71, 33387.87, 74999.87, 0.000, 0.000, 0.000, 15:42:24.669
52, 48055.64, 56436.32, 52052.61, 31732.73, 32407.53, 26482.57, 33469.66, 75117.44, 0.000, 0.000, 0.000, 15:42:24.669
53, 48030.72, 56406.39, 52007.68, 31678.79, 32355.56, 26424.88, 33419.34, 75148.09, 0.000, 0.000, 0.000, 15:42:24.670
54, 47960.20, 56342.96, 51937.65, 31615.16, 32286.29, 26357.13, 33355.82, 75078.26, 0.000, 0.000, 0.000, 15:42:24.670
55, 48015.21, 56407.13, 52006.88, 31698.93, 32365.12, 26465.63, 33435.44, 75065.18, 0.000, 0.000, 0.000, 15:42:24.670
56, 48065.23, 56461.11, 52046.06, 31729.08, 32437.14, 26501.30, 33473.82, 75127.02, 0.124, 0.798, 0.650, 15:42:24.670
57, 48017.98, 56415.09, 51972.07, 31642.31, 32364.72, 26418.80, 33402.51, 75138.70, 0.000, 0.000, 0.000, 15:42:24.670
58, 47912.75, 56311.30, 51851.91, 31530.40, 32259.45, 26333.84, 33292.54, 75051.50, 0.000, 0.000, 0.000, 15:42:24.671
59, 47941.29, 56350.04, 51893.51, 31583.48, 32322.99, 26408.94, 33352.24, 75019.58, 0.000, 0.000, 0.000, 15:42:24.671
60, 48010.76, 56426.93, 51953.32, 31644.93, 32417.20, 26469.45, 33426.56, 75075.15, 0.000, 0.000, 0.000, 15:42:24.671
61, 47990.96, 56407.22, 51898.40, 31594.66, 32381.24, 26419.56, 33388.12, 75099.69, 0.000, 0.000, 0.000, 15:42:24.671
62, 47871.76, 56291.48, 51751.15, 31459.54, 32260.36, 26287.75, 33268.20, 75026.40, 0.000, 0.000, 0.000, 15:42:24.671
63, 47853.14, 56282.34, 51748.29, 31472.33, 32287.27, 26317.14, 33284.68, 74956.70, 0.000, 0.000, 0.000, 15:42:24.672
64, 47913.73, 56351.07, 51805.22, 31528.32, 32356.25, 26376.98, 33353.88, 75009.41, 0.000, 0.000, 0.000, 15:42:24.677
65, 47881.30, 56318.08, 51746.21, 31467.14, 32323.66, 26321.82, 33306.02, 75012.43, 0.000, 0.000, 0.000, 15:42:24.677
66, 47753.96, 56189.54, 51598.69, 31317.95, 32176.43, 26174.41, 33164.33, 74926.82, 0.102, 0.764, 0.638, 15:42:24.678
67, 47737.54, 56176.32, 51616.37, 31331.85, 32192.23, 26184.24, 33176.92, 74860.80, 0.000, 0.000, 0.000, 15:42:24.679
68, 47812.04, 56261.29, 51730.85, 31433.30, 32281.89, 26284.00, 33273.30, 74910.86, 0.000, 0.000, 0.000, 15:42:24.680
69, 47801.37, 56252.25, 51736.11, 31414.30, 32249.54, 26255.83, 33252.31, 74935.83, 0.000, 0.000, 0.000, 15:42:24.681
70, 47686.39, 56130.21, 51631.68, 31280.19, 32101.19, 26106.75, 33113.73, 74867.68, 0.000, 0.000, 0.000, 15:42:24.682
71, 47628.95, 56072.28, 51624.26, 31256.68, 32068.52, 26065.51, 33086.82, 74777.45, 0.000, 0.000, 0.000, 15:42:24.682
72, 47679.02, 56130.10, 51713.42, 31342.98, 32136.38, 26150.76, 33165.70, 74799.55, 0.000, 0.000, 0.000, 15:42:24.683
73, 47696.07, 56148.25, 51730.81, 31353.93, 32139.10, 26153.35, 33170.23, 74843.20, 0.000, 0.000, 0.000, 15:42:24.683
74, 47634.61, 56074.89, 51639.82, 31252.97, 32029.27, 26040.52, 33060.89, 74805.20, 0.000, 0.000, 0.000, 15:42:24.683
75, 47633.53, 56065.75, 51650.30, 31267.29, 32036.17, 26054.11, 33073.47, 74738.04, 0.000, 0.000, 0.000, 15:42:24.709
76, 47882.96, 56322.91, 51927.57, 31544.39, 32316.49, 26325.06, 33354.25, 74883.52, 0.094, 0.822, 0.636, 15:42:24.709
77, 48160.92, 56600.36, 52193.24, 31803.80, 32577.80, 26590.64, 33612.02, 75145.91, 0.000, 0.000, 0.000, 15:42:24.709
78, 48329.63, 56758.25, 52344.92, 31939.21, 32727.00, 26733.33, 33746.35, 75355.51, 0.000, 0.000, 0.000, 15:42:24.709
79, 48417.16, 56841.47, 52446.04, 32029.47, 32824.18, 26821.82, 33844.09, 75461.66, 0.000, 0.000, 0.000, 15:42:24.709
80, 48659.07, 57087.61, 52716.70, 32299.57, 33097.59, 27093.67, 34126.60, 75633.70, 0.000, 0.000, 0.000, 15:42:24.710
81, 48904.43, 57338.04, 52949.11, 32530.53, 33336.04, 27331.06, 34360.06, 75888.44, 0.000, 0.000, 0.000, 15:42:24.710
82, 48945.76, 57368.34, 52951.48, 32521.09, 33341.80, 27317.52, 34353.94, 76022.46, 0.000, 0.000, 0.000, 15:42:24.710
83, 48856.89, 57274.73, 52854.07, 32422.05, 33245.27, 27236.79, 34252.06, 75974.72, 0.000, 0.000, 0.000, 15:42:24.710
84, 48903.85, 57327.91, 52924.05, 32494.96, 33321.89, 27317.41, 34334.60, 75956.66, 0.000, 0.000, 0.000, 15:42:24.711
85, 49014.09, 57441.12, 53038.23, 32605.14, 33441.45, 27426.42, 34457.31, 76065.87, 0.000, 0.000, 0.000, 15:42:24.711
86, 49054.46, 57472.03, 53055.91, 32613.16, 33458.68, 27433.99, 34465.18, 76149.55, 0.072, 0.840, 0.626, 15:42:24.711
87, 49035.61, 57447.80, 53017.96, 32570.13, 33414.79, 27390.50, 34419.47, 76139.74, 0.000, 0.000, 0.000, 15:42:24.714
88, 49269.30, 57686.45, 53285.30, 32842.04, 33684.23, 27660.60, 34688.05, 76232.12, 0.000, 0.000, 0.000, 15:42:24.714
89, 49694.95, 58121.44, 53722.77, 33283.56, 34123.11, 28095.61, 35122.26, 76575.20, 0.000, 0.000, 0.000, 15:42:24.715
90, 49894.99, 58315.97, 53896.20, 33452.71, 34295.11, 28260.81, 35291.14, 76852.73, 0.000, 0.000, 0.000, 15:42:24.715
91, 49825.03, 58238.45, 53806.32, 33363.71, 34198.59, 28173.19, 35197.29, 76897.35, 0.000, 0.000, 0.000, 15:42:24.715
92, 49794.03, 58211.05, 53800.63, 33364.40, 34191.51, 28169.30, 35194.56, 76843.35, 0.000, 0.000, 0.000, 15:42:24.715
93, 49830.33, 58254.66, 53850.22, 33417.38, 34242.63, 28215.57, 35237.86, 76858.44, 0.000, 0.000, 0.000, 15:42:24.715
94, 49780.26, 58198.26, 53781.18, 33347.19, 34177.29, 28144.13, 35173.89, 76860.25, 0.000, 0.000, 0.000, 15:42:24.716
95, 49633.12, 58044.91, 53597.11, 33174.52, 34002.12, 27982.95, 35008.15, 76781.13, 0.000, 0.000, 0.000, 15:42:24.716
96, 49570.00, 57985.59, 53541.16, 33139.57, 33969.20, 27959.19, 34977.06, 76675.69, 0.078, 0.848, 0.608, 15:42:24.716
97, 49705.94, 58129.24, 53680.06, 33283.38, 34112.02, 28100.19, 35121.00, 76724.22, 0.000, 0.000, 0.000, 15:42:24.716
98, 49772.30, 58189.23, 53714.35, 33320.79, 34169.89, 28143.15, 35160.16, 76810.41, 0.000, 0.000, 0.000, 15:42:24.716
99, 49678.72, 58091.24, 53585.89, 33201.59, 34067.05, 28037.38, 35045.07, 76793.82, 0.000, 0.000, 0.000, 15:42:24.716
100, 49532.49, 57950.89, 53437.63, 33067.80, 33937.12, 27908.50, 34919.70, 76657.67, 0.000, 0.000, 0.000, 15:42:24.717
101, 49496.64, 57929.64, 53422.05, 33059.04, 33936.94, 27907.00, 34927.13, 76579.11, 0.000, 0.000, 0.000, 15:42:24.717
102, 49465.48, 57902.17, 53370.62, 33001.93, 33912.47, 27859.64, 34880.52, 76555.66, 0.000, 0.000, 0.000, 15:42:24.717
103, 49314.72, 57745.84, 53190.98, 32818.66, 33741.05, 27680.60, 34703.74, 76470.97, 0.000, 0.000, 0.000, 15:42:24.718
104, 49123.48, 57556.54, 53001.35, 32631.49, 33558.62, 27493.92, 34522.47, 76289.83, 0.000, 0.000, 0.000, 15:42:24.926
105, 49112.95, 57553.68, 53018.47, 32657.98, 33571.54, 27512.18, 34541.42, 76190.81, 0.070, 0.818, 0.592, 15:42:24.927
106, 49167.49, 57608.80, 53077.66, 32717.68, 33627.02, 27564.26, 34597.77, 76213.99, 0.000, 0.000, 0.000, 15:42:24.928
107, 49152.80, 57593.20, 53045.74, 32685.74, 33586.40, 27522.06, 34557.74, 76219.96, 0.000, 0.000, 0.000, 15:42:24.928
108, 49077.52, 57517.32, 52971.15, 32616.74, 33508.15, 27442.78, 34483.69, 76149.62, 0.000, 0.000, 0.000, 15:42:24.930
109, 49087.56, 57526.19, 53017.35, 32668.01, 33544.63, 27485.63, 34531.79, 76119.35, 0.000, 0.000, 0.000, 15:42:24.931
110, 49111.72, 57552.07, 53053.29, 32699.71, 33568.99, 27505.65, 34554.68, 76152.77, 0.000, 0.000, 0.000, 15:42:24.932
111, 49029.67, 57461.55, 52955.24, 32595.39, 33452.07, 27390.52, 34440.55, 76126.84, 0.000, 0.000, 0.000, 15:42:24.932
112, 48825.62, 57248.23, 52740.70, 32377.98, 33218.78, 27161.12, 34213.48, 75963.18, 0.000, 0.000, 0.000, 15:42:24.932
113, 48775.44, 57192.17, 52717.66, 32360.16, 33181.95, 27133.38, 34182.59, 75815.08, 0.000, 0.000, 0.000, 15:42:24.932
114, 48934.36, 57344.58, 52885.48, 32529.70, 33332.33, 27298.54, 34344.26, 75884.57, 0.000, 0.000, 0.000, 15:42:24.932
115, 49073.79, 57472.55, 53001.19, 32643.47, 33435.17, 27408.20, 34457.02, 76039.80, 0.100, 0.858, 0.586, 15:42:24.933
116, 49126.43, 57511.06, 53025.69, 32669.35, 33451.53, 27429.28, 34471.26, 76116.09, 0.000, 0.000, 0.000, 15:42:24.933
117, 49228.93, 57608.22, 53141.81, 32798.25, 33565.43, 27554.87, 34592.36, 76166.80, 0.000, 0.000, 0.000, 15:42:24.933
118, 49336.76, 57715.38, 53253.72, 32913.68, 33680.21, 27665.07, 34697.33, 76266.72, 0.000, 0.000, 0.000, 15:42:24.933
119, 49268.72, 57633.43, 53163.18, 32817.30, 33579.09, 27554.58, 34590.44, 76252.55, 0.000, 0.000, 0.000, 15:42:24.933
120, 49126.47, 57480.82, 52997.26, 32650.71, 33411.01, 27378.56, 34419.85, 76134.20, 0.000, 0.000, 0.000, 15:42:24.934
121, 49138.48, 57493.56, 53030.52, 32693.13, 33449.00, 27419.29, 34463.62, 76067.43, 0.000, 0.000, 0.000, 15:42:24.934
122, 49399.01, 57758.94, 53306.76, 32973.72, 33728.18, 27699.35, 34745.29, 76219.40, 0.000, 0.000, 0.000, 15:42:24.934
123, 49650.96, 58009.93, 53536.18, 33201.75, 33961.66, 27928.91, 34977.08, 76476.54, 0.000, 0.000, 0.000, 15:42:24.959
124, 49754.87, 58110.13, 53607.98, 33272.27, 34036.39, 28001.13, 35048.11, 76633.16, 0.000, 0.000, 0.000, 15:42:24.960
125, 49942.49, 58293.26, 53799.06, 33470.48, 34230.42, 28205.64, 35242.75, 76754.19, 0.116, 0.858, 0.572, 15:42:24.960
126, 50421.46, 58779.63, 54298.40, 33982.34, 34737.98, 28721.63, 35746.61, 77101.52, 0.000, 0.000, 0.000, 15:42:24.961
127, 50916.38, 59275.28, 54774.04, 34465.25, 35219.80, 29206.71, 36230.46, 77585.85, 0.000, 0.000, 0.000, 15:42:24.962
128, 51256.17, 59606.13, 55071.54, 34766.44, 35529.30, 29508.19, 36536.00, 77992.50, 0.000, 0.000, 0.000, 15:42:24.962
129, 51507.49, 59853.52, 55304.72, 35012.31, 35780.00, 29754.28, 36777.69, 78268.68, 0.000, 0.000, 0.000, 15:42:24.962
130, 51944.54, 60293.56, 55750.55, 35473.29, 36236.40, 30220.21, 37231.16, 78607.35, 0.000, 0.000, 0.000, 15:42:24.963
131, 52380.21, 60726.58, 56163.11, 35891.67, 36660.75, 30645.67, 37647.15, 79035.72, 0.000, 0.000, 0.000, 15:42:24.963
132, 52660.93, 60999.70, 56407.48, 36132.24, 36916.34, 30890.06, 37888.66, 79372.61, 0.000, 0.000, 0.000, 15:42:24.963
133, 52869.16, 61201.38, 56602.01, 36320.53, 37113.59, 31085.98, 38080.46, 79593.91, 0.000, 0.000, 0.000, 15:42:24.963
134, 53139.68, 61474.74, 56890.51, 36615.29, 37394.73, 31379.26, 38351.30, 79808.33, 0.000, 0.000, 0.000, 15:42:24.963
135, 53339.93, 61676.71, 57088.19, 36815.16, 37585.38, 31583.44, 38552.51, 80044.92, 0.130, 0.854, 0.556, 15:42:24.990
136, 53329.74, 61659.14, 57048.89, 36770.79, 37555.89, 31545.31, 38562.48, 80155.55, 0.000, 0.000, 0.000, 15:42:24.991
137, 53210.85, 61532.70, 56902.91, 36615.98, 37433.89, 31396.91, 38416.57, 80095.08, 0.000, 0.000, 0.000, 15:42:24.992
138, 53309.16, 61621.70, 57012.39, 36724.23, 37557.93, 31498.32, 38515.16, 80067.01, 0.000, 0.000, 0.000, 15:42:24.992
139, 53553.64, 61866.77, 57255.89, 36973.36, 37813.09, 31754.65, 38759.93, 80243.07, 0.000, 0.000, 0.000, 15:42:24.992
140, 53752.99, 62059.06, 57417.36, 37138.03, 37982.61, 31937.42, 38934.91, 80482.55, 0.000, 0.000, 0.000, 15:42:24.992
141, 53847.96, 62142.90, 57470.67, 37192.95, 38052.32, 32004.90, 38999.05, 80634.85, 0.000, 0.000, 0.000, 15:42:24.992
142, 53964.11, 62260.71, 57586.29, 37318.79, 38194.41, 32144.27, 39136.92, 80720.17, 0.000, 0.000, 0.000, 15:42:24.992
143, 54157.05, 62464.74, 57771.73, 37521.27, 38401.59, 32362.33, 39339.27, 80879.83, 0.000, 0.000, 0.000, 15:42:24.993
144, 54378.93, 62689.11, 57954.07, 37713.40, 38605.02, 32558.06, 39532.64, 81085.27, 0.000, 0.000, 0.000, 15:42:24.993
145, 54431.61, 62742.80, 57959.08, 37723.91, 38637.85, 32569.08, 39549.15, 81214.34, 0.138, 0.778, 0.512, 15:42:24.993
146, 54380.90, 62698.94, 57916.56, 37692.50, 38616.04, 32555.09, 39524.70, 81195.75, 0.000, 0.000, 0.000, 15:42:24.994
147, 54420.71, 62750.11, 57968.51, 37753.91, 38681.84, 32619.91, 39594.13, 81208.83, 0.000, 0.000, 0.000, 15:42:24.994
148, 54425.49, 62760.99, 57942.40, 37742.82, 38665.48, 32602.57, 39590.46, 81231.13, 0.000, 0.000, 0.000, 15:42:24.994
149, 54262.70, 62600.28, 57742.45, 37555.42, 38474.77, 32432.92, 39403.78, 81153.23, 0.000, 0.000, 0.000, 15:42:24.994
150, 54061.89, 62399.23, 57555.81, 37363.98, 38322.24, 32236.60, 39205.14, 80948.56, 0.000, 0.000, 0.000, 15:42:24.994
151, 54084.87, 62431.84, 57607.02, 37426.39, 38376.29, 32305.60, 39274.52, 80882.84, 0.000, 0.000, 0.000, 15:42:24.994
152, 54233.31, 62585.15, 57747.92, 37580.43, 38518.16, 32452.81, 39423.40, 80999.23, 0.000, 0.000, 0.000, 15:42:24.995
153, 54299.79, 62646.26, 57784.44, 37624.22, 38537.45, 32483.70, 39462.56, 81104.87, 0.000, 0.000, 0.000, 15:42:24.995
154, 54203.05, 62546.26, 57688.46, 37525.00, 38417.75, 32373.19, 39358.74, 81051.98, 0.000, 0.000, 0.000, 15:42:24.995
155, 54220.08, 62565.35, 57736.66, 37570.96, 38478.50, 32415.17, 39393.34, 80980.32, 0.142, 0.786, 0.512, 15:42:24.995
156, 54353.99, 62697.22, 57870.43, 37706.54, 38597.50, 32527.29, 39515.02, 81052.43, 0.000, 0.000, 0.000, 15:42:24.996
157, 54426.68, 62753.30, 57918.31, 37755.14, 38625.00, 32566.63, 39552.77, 81140.00, 0.000, 0.000, 0.000, 15:42:24.996
158, 54413.22, 62723.20, 57895.06, 37737.10, 38583.45, 32526.57, 39524.95, 81141.37, 0.000, 0.000, 0.000, 15:42:24.996
159, 54560.81, 62858.78, 58063.04, 37919.09, 38737.56, 32698.92, 39692.96, 81195.99, 0.000, 0.000, 0.000, 15:42:24.996
160, 54893.27, 63183.15, 58392.01, 38255.48, 39055.09, 33029.20, 40011.14, 81444.68, 0.000, 0.000, 0.000, 15:42:24.997
161, 55090.03, 63361.11, 58560.79, 38417.15, 39211.82, 33174.55, 40176.68, 81687.64, 0.000, 0.000, 0.000, 15:42:24.997
162, 55066.36, 63315.58, 58509.02, 38358.79, 39158.45, 33107.29, 40128.18, 81739.70, 0.000, 0.000, 0.000, 15:42:24.997
163, 55088.35, 63321.95, 58538.46, 38394.95, 39189.69, 33151.21, 40164.52, 81723.98, 0.000, 0.000, 0.000, 15:42:24.998
164, 55211.46, 63433.06, 58655.78, 38513.42, 39299.82, 33269.48, 40278.98, 81808.16, 0.000, 0.000, 0.000, 15:42:24.998
165, 55255.75, 63462.55, 58671.05, 38521.06, 39307.87, 33267.46, 40288.21, 81880.83, 0.160, 0.852, 0.542, 15:42:25.025
166, 55165.85, 63355.53, 58558.75, 38398.04, 39189.98, 33141.02, 40166.48, 81841.94, 0.000, 0.000, 0.000, 15:42:25.025
167, 55076.26, 63259.93, 58493.93, 38323.96, 39131.89, 33071.71, 40106.58, 81733.80, 0.000, 0.000, 0.000, 15:42:25.026
168, 55079.82, 63268.22, 58520.87, 38345.04, 39164.61, 33098.28, 40137.83, 81696.31, 0.000, 0.000, 0.000, 15:42:25.026
169, 55121.81, 63302.89, 58550.48, 38368.42, 39190.88, 33125.87, 40169.23, 81726.65, 0.000, 0.000, 0.000, 15:42:25.368
170, 55087.28, 63256.48, 58490.07, 38299.29, 39127.11, 33053.58, 40108.41, 81740.88, 0.000, 0.000, 0.000, 15:42:25.368
171, 55046.45, 63216.09, 58464.47, 38272.33, 39108.40, 33028.64, 40088.21, 81691.76, 0.000, 0.000, 0.000, 15:42:25.368
172, 55079.75, 63253.78, 58523.75, 38324.61, 39167.63, 33079.02, 40161.90, 81714.38, 0.000, 0.000, 0.000, 15:42:25.368
173, 55027.63, 63198.48, 58460.05, 38253.04, 39108.04, 32998.48, 40102.56, 81729.51, 0.000, 0.000, 0.000, 15:42:25.369
174, 54837.07, 63003.02, 58242.34, 38034.89, 38891.79, 32798.97, 39886.11, 81626.96, 0.120, 0.868, 0.566, 15:42:25.369
175, 54631.80, 62802.68, 58042.88, 37833.19, 38703.92, 32603.95, 39698.66, 81426.13, 0.000, 0.000, 0.000, 15:42:25.370
176, 54587.07, 62769.69, 58021.53, 37816.67, 38688.99, 32592.53, 39692.25, 81322.02, 0.000, 0.000, 0.000, 15:42:25.370
177, 54566.75, 62753.32, 57981.92, 37776.97, 38660.54, 32547.36, 39667.73, 81303.66, 0.000, 0.000, 0.000, 15:42:25.370
178, 54454.91, 62639.27, 57826.62, 37628.22, 38536.37, 32412.02, 39526.78, 81234.41, 0.000, 0.000, 0.000, 15:42:25.370
179, 54332.51, 62521.45, 57688.04, 37506.63, 38426.04, 32306.99, 39406.79, 81098.48, 0.000, 0.000, 0.000, 15:42:25.370
180, 54419.48, 62620.89, 57793.59, 37623.28, 38550.43, 32424.98, 39538.83, 81083.63, 0.000, 0.000, 0.000, 15:42:25.370
181, 54575.09, 62791.21, 57948.13, 37787.95, 38730.34, 32591.14, 39711.88, 81230.77, 0.000, 0.000, 0.000, 15:42:25.371
182, 54623.39, 62846.60, 57959.34, 37810.30, 38764.09, 32613.76, 39733.78, 81337.03, 0.000, 0.000, 0.000, 15:42:25.371
183, 54530.41, 62763.54, 57839.32, 37717.14, 38665.12, 32549.21, 39637.15, 81301.00, 0.000, 0.000, 0.000, 15:42:25.371
184, 54533.63, 62788.13, 57864.13, 37763.23, 38715.21, 32594.45, 39700.50, 81263.32, 0.100, 0.804, 0.560, 15:42:25.371
185, 54606.16, 62877.24, 57937.62, 37847.11, 38818.96, 32678.12, 39781.95, 81322.82, 0.000, 0.000, 0.000, 15:42:25.371
186, 54546.08, 62820.89, 57849.06, 37763.63, 38739.48, 32596.13, 39693.70, 81335.78, 0.000, 0.000, 0.000, 15:42:25.371
187, 54335.28, 62620.54, 57612.04, 37545.32, 38512.79, 32390.89, 39479.26, 81220.96, 0.000, 0.000, 0.000, 15:42:25.372
188, 54202.22, 62492.01, 57490.36, 37441.61, 38408.83, 32288.61, 39373.49, 81071.56, 0.000, 0.000, 0.000, 15:42:25.372
189, 54143.59, 62442.59, 57447.40, 37398.54, 38375.17, 32242.84, 39319.98, 80994.27, 0.000, 0.000, 0.000, 15:42:25.372
190, 54017.55, 62315.79, 57295.30, 37245.45, 38217.39, 32082.06, 39165.64, 80837.05, 0.000, 0.000, 0.000, 15:42:25.372
191, 53764.32, 62060.02, 57016.35, 36971.33, 37950.22, 31805.75, 38889.82, 80602.27, 0.000, 0.000, 0.000, 15:42:25.372
192, 53579.27, 61876.06, 56842.21, 36812.96, 37782.11, 31649.22, 38723.82, 80347.63, 0.000, 0.000, 0.000, 15:42:25.373
193, 53569.91, 61871.28, 56849.18, 36825.26, 37786.56, 31652.46, 38723.46, 80245.46, 0.000, 0.000, 0.000, 15:42:25.373
194, 53568.48, 61866.68, 56837.27, 36809.03, 37767.90, 31631.23, 38704.59, 80237.41, 0.124, 0.798, 0.558, 15:42:25.373
195, 53456.16, 61743.68, 56690.53, 36661.82, 37624.00, 31478.36, 38559.24, 80169.40, 0.000, 0.000, 0.000, 15:42:25.373
196, 53368.18, 61650.33, 56599.67, 36580.06, 37534.75, 31396.18, 38466.55, 80053.69, 0.000, 0.000, 0.000, 15:42:25.373
197, 53472.81, 61755.63, 56709.55, 36702.46, 37653.70, 31529.12, 38583.87, 80087.37, 0.000, 0.000, 0.000, 15:42:25.374
198, 53653.13, 61934.29, 56856.71, 36858.11, 37809.27, 31680.22, 38726.81, 80235.72, 0.000, 0.000, 0.000, 15:42:25.374
199, 53775.57, 62045.29, 56938.45, 36946.79, 37893.98, 31772.09, 38828.15, 80393.03, 0.000, 0.000, 0.000, 15:42:25.378
200, 53812.74, 62070.59, 56975.45, 36981.81, 37985.36, 31813.97, 38901.20, 80416.16, 0.000, 0.000, 0.000, 15:42:25.378
201, 53921.08, 62177.72, 57096.16, 37111.52, 38119.94, 31949.11, 39032.36, 80470.30, 0.000, 0.000, 0.000, 15:42:25.378
202, 53962.00, 62217.38, 57120.30, 37136.35, 38156.59, 31972.02, 39055.54, 80532.26, 0.000, 0.000, 0.000, 15:42:25.379
203, 53838.76, 62087.36, 56959.20, 36969.18, 38003.42, 31800.99, 38889.08, 80453.78, 0.000, 0.000, 0.000, 15:42:25.379
204, 53614.55, 61859.52, 56716.72, 36732.32, 37762.24, 31573.87, 38652.73, 80240.84, 0.106, 0.808, 0.554, 15:42:25.379
205, 53529.43, 61777.98, 56644.93, 36672.30, 37683.86, 31518.10, 38591.70, 80064.52, 0.000, 0.000, 0.000, 15:42:25.379
206, 53449.84, 61700.67, 56557.31, 36584.13, 37610.61, 31430.44, 38506.31, 79964.28, 0.000, 0.000, 0.000, 15:42:25.379
207, 53216.15, 61460.23, 56299.32, 36315.53, 37357.99, 31155.29, 38230.22, 79763.16, 0.000, 0.000, 0.000, 15:42:25.379
208, 52880.27, 61118.56, 55940.38, 35961.52, 36996.52, 30793.68, 37863.05, 79418.72, 0.000, 0.000, 0.000, 15:42:25.380
209, 52643.12, 60882.66, 55716.97, 35755.28, 36773.76, 30588.79, 37651.87, 79101.39, 0.000, 0.000, 0.000, 15:42:25.380
210, 52499.29, 60740.93, 55568.58, 35617.53, 36628.81, 30451.10, 37507.86, 78913.88, 0.000, 0.000, 0.000, 15:42:25.380
211, 52303.32, 60538.94, 55337.17, 35391.77, 36409.52, 30215.96, 37278.15, 78738.94, 0.000, 0.000, 0.000, 15:42:25.380
212, 51966.20, 60199.84, 54964.75, 35037.50, 36047.60, 29878.43, 36927.38, 78476.28, 0.000, 0.000, 0.000, 15:42:25.381
213, 51733.29, 59960.39, 54728.49, 34832.09, 35819.77, 29691.99, 36710.48, 78198.20, 0.000, 0.000, 0.000, 15:42:25.381
214, 51635.90, 59862.13, 54621.71, 34739.95, 35736.59, 29587.09, 36605.61, 78041.02, 0.138, 0.822, 0.550, 15:42:25.381
215, 51493.28, 59717.29, 54440.55, 34571.84, 35575.75, 29421.73, 36422.14, 77905.88, 0.000, 0.000, 0.000, 15:42:25.382
216, 51244.97, 59466.05, 54148.35, 34295.73, 35298.32, 29146.70, 36158.66, 77704.32, 0.000, 0.000, 0.000, 15:42:25.382
217, 51068.21, 59285.50, 53971.08, 34133.86, 35143.82, 28982.68, 35999.18, 77498.28, 0.000, 0.000, 0.000, 15:42:25.382
218, 51019.71, 59241.22, 53931.94, 34109.10, 35125.12, 28972.13, 35973.03, 77418.15, 0.000, 0.000, 0.000, 15:42:25.382
219, 50955.27, 59176.15, 53845.30, 34031.31, 35047.24, 28886.92, 35889.28, 77375.12, 0.000, 0.000, 0.000, 15:42:25.382
220, 50778.36, 58996.06, 53633.81, 33824.31, 34833.65, 28663.45, 35674.32, 77244.23, 0.000, 0.000, 0.000, 15:42:25.383
221, 50589.77, 58810.97, 53457.61, 33661.30, 34664.63, 28500.37, 35513.55, 77046.30, 0.000, 0.000, 0.000, 15:42:25.383
222, 50542.12, 58770.54, 53441.10, 33648.52, 34637.94, 28476.39, 35494.19, 76936.29, 0.000, 0.000, 0.000, 15:42:25.383
223, 50476.18, 58703.88, 53370.11, 33577.97, 34557.25, 28397.42, 35427.31, 76880.92, 0.000, 0.000, 0.000, 15:42:25.384
224, 50325.91, 58547.00, 53198.89, 33406.13, 34389.10, 28218.03, 35257.64, 76777.14, 0.174, 0.836, 0.566, 15:42:25.384
225, 50128.21, 58348.02, 53007.41, 33219.72, 34202.32, 28034.65, 35067.02, 76601.08, 0.000, 0.000, 0.000, 15:42:25.384
226, 50052.95, 58276.58, 52961.36, 33182.93, 34161.15, 27994.08, 35036.18, 76484.49, 0.000, 0.000, 0.000, 15:42:25.385
227, 50014.82, 58244.17, 52924.82, 33150.88, 34122.71, 27954.07, 35005.94, 76434.52, 0.000, 0.000, 0.000, 15:42:25.385
228, 49893.09, 58121.98, 52787.24, 33010.42, 33981.51, 27808.88, 34866.48, 76348.73, 0.000, 0.000, 0.000, 15:42:25.385
229, 49743.92, 57973.25, 52649.38, 32866.20, 33842.60, 27648.73, 34719.81, 76204.05, 0.000, 0.000, 0.000, 15:42:25.386
230, 49735.56, 57973.29, 52682.03, 32894.84, 33875.36, 27674.39, 34757.03, 76126.55, 0.000, 0.000, 0.000, 15:42:25.388
231, 49791.86, 58037.15, 52746.52, 32952.19, 33936.00, 27739.27, 34826.21, 76170.88, 0.000, 0.000, 0.000, 15:42:25.388
232, 49790.23, 58037.42, 52727.63, 32928.45, 33924.63, 27722.89, 34818.81, 76231.80, 0.000, 0.000, 0.000, 15:42:25.388
233, 49652.16, 57901.28, 52576.91, 32780.71, 33772.77, 27574.38, 34674.68, 76177.78, 0.000, 0.000, 0.000, 15:42:25.388
234, 49545.50, 57802.91, 52496.07, 32708.92, 33700.68, 27500.24, 34603.43, 76068.08, 0.172, 0.848, 0.598, 15:42:25.389
235, 49528.13, 57792.16, 52481.69, 32697.88, 33686.27, 27474.79, 34594.46, 76048.84, 0.000, 0.000, 0.000, 15:42:25.389
236, 49460.54, 57725.97, 52391.95, 32612.42, 33588.23, 27402.86, 34504.75, 76031.27, 0.000, 0.000, 0.000, 15:42:25.389
237, 49294.16, 57562.54, 52215.55, 32434.48, 33416.37, 27231.20, 34329.73, 75937.77, 0.000, 0.000, 0.000, 15:42:25.389
238, 49213.91, 57482.34, 52159.16, 32379.09, 33363.13, 27177.66, 34272.78, 75835.84, 0.000, 0.000, 0.000, 15:42:25.389
239, 49246.10, 57521.68, 52206.05, 32432.92, 33402.78, 27228.40, 34319.43, 75845.01, 0.000, 0.000, 0.000, 15:42:25.390
240, 49230.07, 57507.50, 52172.01, 32400.82, 33366.88, 27189.24, 34287.69, 75863.96, 0.000, 0.000, 0.000, 15:42:25.390
241, 49113.57, 57392.26, 52032.64, 32265.55, 33225.93, 27054.42, 34144.14, 75802.27, 0.000, 0.000, 0.000, 15:42:25.390
242, 49040.53, 57319.84, 51974.60, 32224.04, 33175.80, 27022.28, 34110.08, 75745.09, 0.000, 0.000, 0.000, 15:42:25.390
243, 49118.31, 57404.08, 52073.55, 32331.57, 33289.10, 27112.26, 34215.40, 75803.08, 0.190, 0.836, 0.612, 15:42:25.390
244, 49145.72, 57437.79, 52086.29, 32340.40, 33317.11, 27108.57, 34242.56, 75882.92, 0.000, 0.000, 0.000, 15:42:25.391
245, 48916.14, 57213.63, 51833.80, 32088.12, 33078.93, 26893.71, 33993.14, 75763.83, 0.000, 0.000, 0.000, 15:42:25.391
246, 48803.00, 57105.20, 51733.00, 31991.04, 32999.73, 26801.37, 33900.51, 75617.91, 0.000, 0.000, 0.000, 15:42:25.391
247, 49099.52, 57415.37, 52050.53, 32315.57, 33329.63, 27122.54, 34242.38, 75823.40, 0.000, 0.000, 0.000, 15:42:25.391
248, 49272.99, 57597.05, 52208.29, 32476.21, 33509.53, 27283.97, 34424.17, 76050.20, 0.000, 0.000, 0.000, 15:42:25.392
249, 49099.00, 57424.45, 52012.73, 32269.55, 33350.66, 27076.66, 34222.09, 75977.33, 0.000, 0.000, 0.000, 15:42:25.392
250, 48816.72, 57145.38, 51726.83, 31984.36, 33076.22, 26803.83, 33940.79, 75716.66, 0.000, 0.000, 0.000, 15:42:25.392
251, 48611.22, 56952.67, 51548.89, 31803.80, 32908.54, 26633.24, 33780.57, 75473.03, 0.000, 0.000, 0.000, 15:42:25.392
252, 48380.75, 56735.57, 51323.07, 31568.66, 32686.03, 26403.24, 33559.91, 75258.32, 0.000, 0.000, 0.000, 15:42:25.392
253, 48055.60, 56412.47, 50985.22, 31216.80, 32335.06, 26053.42, 33220.41, 74982.41, 0.152, 0.814, 0.608, 15:42:25.392
254, 47684.25, 56040.76, 50610.96, 30835.28, 31951.50, 25675.74, 32846.22, 74626.08, 0.000, 0.000, 0.000, 15:42:25.393
255, 47451.57, 55811.45, 50400.37, 30627.59, 31746.92, 25471.91, 32642.06, 74330.79, 0.000, 0.000, 0.000, 15:42:25.393
0, 47316.77, 55679.94, 50265.09, 30494.57, 31604.27, 25347.30, 32514.50, 74200.66, 0.000, 0.000, 0.000, 15:42:25.393
1, 47148.99, 55508.95, 50071.84, 30294.35, 31434.35, 25136.50, 32319.30, 74081.01, 0.000, 0.000, 0.000, 15:42:25.393
2, 46946.42, 55301.52, 49849.20, 30070.56, 31238.15, 24926.02, 32098.96, 73909.77, 0.000, 0.000, 0.000, 15:42:25.393
3, 46865.44, 55217.95, 49784.51, 30014.39, 31179.70, 24887.86, 32053.38, 73783.30, 0.000, 0.000, 0.000, 15:42:25.393
4, 46848.96, 55206.01, 49765.82, 30009.07, 31171.03, 24882.81, 32059.87, 73778.88, 0.000, 0.000, 0.000, 15:42:25.394
5, 46794.07, 55147.70, 49691.64, 29932.20, 31092.77, 24800.18, 31974.93, 73749.63, 0.000, 0.000, 0.000, 15:42:25.394
6, 46642.23, 54991.23, 49519.26, 29758.46, 30910.20, 24622.48, 31800.12, 73610.86, 0.000, 0.000, 0.000, 15:42:25.394
7, 46536.51, 54880.86, 49423.64, 29673.66, 30819.75, 24545.86, 31712.90, 73437.21, 0.150, 0.804, 0.608, 15:42:25.394
8, 46518.96, 54869.15, 49415.17, 29669.57, 30818.36, 24537.81, 31704.16, 73357.88, 0.000, 0.000, 0.000, 15:42:25.394
9, 46453.88, 54803.14, 49330.66, 29584.34, 30727.99, 24453.34, 31618.62, 73298.81, 0.000, 0.000, 0.000, 15:42:25.395
10, 46246.85, 54593.11, 49095.70, 29348.09, 30503.40, 24212.32, 31378.74, 73120.65, 0.000, 0.000, 0.000, 15:42:25.395
11, 45991.53, 54337.45, 48848.04, 29104.12, 30275.77, 23966.12, 31132.92, 72803.98, 0.000, 0.000, 0.000, 15:42:25.395
12, 45809.59, 54162.93, 48678.01, 28945.02, 30114.53, 23803.58, 30967.96, 72514.96, 0.000, 0.000, 0.000, 15:42:25.399
13, 45605.78, 53962.83, 48453.57, 28732.34, 29888.42, 23598.05, 30749.07, 72272.53, 0.000, 0.000, 0.000, 15:42:25.400
14, 45294.11, 53649.19, 48110.32, 28397.49, 29524.71, 23266.20, 30404.94, 71977.04, 0.000, 0.000, 0.000, 15:42:25.400
15, 44937.33, 53285.91, 47766.86, 28051.37, 29189.97, 22909.26, 30054.82, 71584.68, 0.000, 0.000, 0.000, 15:42:25.400
16, 44681.85, 53032.21, 47543.37, 27828.61, 28970.74, 22676.51, 29840.76, 71263.28, 0.000, 0.000, 0.000, 15:42:25.400
17, 44436.18, 52787.20, 47292.47, 27577.96, 28714.01, 22405.70, 29585.44, 71001.74, 0.174, 0.820, 0.606, 15:42:25.400
18, 44151.46, 52498.50, 46982.83, 27271.18, 28389.38, 22105.05, 29272.20, 70731.71, 0.000, 0.000, 0.000, 15:42:25.400
19, 43877.66, 52220.63, 46705.51, 27003.10, 28109.35, 21842.26, 28995.22, 70441.27, 0.000, 0.000, 0.000, 15:42:25.401
20, 43722.80, 52063.38, 46572.76, 26876.81, 27988.50, 21716.31, 28871.59, 70240.27, 0.000, 0.000, 0.000, 15:42:25.401
21, 43575.28, 51906.52, 46411.65, 26716.62, 27827.09, 21547.33, 28708.13, 70103.92, 0.000, 0.000, 0.000, 15:42:25.402
22, 43367.90, 51677.70, 46148.71, 26450.67, 27561.62, 21274.35, 28440.09, 69908.54, 0.000, 0.000, 0.000, 15:42:25.402
23, 43107.21, 51405.68, 45857.20, 26170.16, 27270.67, 20993.29, 28159.24, 69659.57, 0.000, 0.000, 0.000, 15:42:25.402
24, 42942.01, 51255.79, 45732.79, 26064.77, 27151.71, 20883.53, 28039.10, 69464.93, 0.000, 0.000, 0.000, 15:42:25.402
25, 42841.97, 51164.04, 45637.70, 25982.31, 27049.54, 20791.95, 27948.93, 69355.52, 0.000, 0.000, 0.000, 15:42:25.402
26, 42683.29, 51002.97, 45441.45, 25792.37, 26870.46, 20605.45, 27755.84, 69224.34, 0.000, 0.000, 0.000, 15:42:25.402
27, 42425.02, 50746.86, 45157.59, 25518.61, 26601.91, 20333.94, 27477.07, 69007.30, 0.204, 0.808, 0.608, 15:42:25.403
28, 42255.57, 50586.69, 45004.48, 25386.28, 26465.78, 20209.13, 27342.66, 68811.88, 0.000, 0.000, 0.000, 15:42:25.403
29, 42203.31, 50544.09, 44951.37, 25348.82, 26414.24, 20176.61, 27308.58, 68751.23, 0.000, 0.000, 0.000, 15:42:25.403
30, 42107.40, 50452.31, 44837.00, 25240.19, 26313.37, 20062.95, 27189.60, 68712.99, 0.000, 0.000, 0.000, 15:42:25.403
31, 41900.02, 50248.80, 44601.99, 25019.22, 26108.76, 19834.24, 26952.94, 68566.14, 0.000, 0.000, 0.000, 15:42:25.403
32, 41741.95, 50095.91, 44455.36, 24887.06, 25976.93, 19698.77, 26813.00, 68366.56, 0.000, 0.000, 0.000, 15:42:25.404
33, 41705.00, 50065.56, 44434.15, 24876.96, 25948.92, 19685.94, 26792.79, 68286.12, 0.000, 0.000, 0.000, 15:42:25.850
34, 41647.33, 50009.75, 44356.21, 24807.24, 25863.83, 19605.85, 26709.42, 68237.51, 0.000, 0.000, 0.000, 15:42:25.851
35, 41492.84, 49857.75, 44167.83, 24623.66, 25663.36, 19408.53, 26519.18, 68127.45, 0.000, 0.000, 0.000, 15:42:25.851
36, 41344.89, 49709.79, 44031.30, 24498.27, 25523.50, 19282.56, 26396.83, 67975.43, 0.000, 0.000, 0.000, 15:42:25.852
37, 41337.32, 49701.76, 44045.96, 24515.28, 25534.03, 19294.16, 26419.43, 67927.46, 0.236, 0.820, 0.618, 15:42:25.852
38, 41322.88, 49678.07, 44019.50, 24479.63, 25511.47, 19245.77, 26383.95, 67906.30, 0.000, 0.000, 0.000, 15:42:25.852
39, 41184.18, 49528.63, 43855.82, 24309.47, 25333.27, 19082.98, 26237.77, 67837.59, 0.000, 0.000, 0.000, 15:42:25.852
40, 41009.86, 49344.38, 43683.60, 24137.98, 25178.66, 18911.95, 26085.67, 67691.36, 0.000, 0.000, 0.000, 15:42:25.853
41, 40980.67, 49311.81, 43663.46, 24116.12, 25166.45, 18884.05, 26055.54, 67596.01, 0.000, 0.000, 0.000, 15:42:25.853
42, 40936.01, 49265.01, 43600.14, 24046.97, 25088.45, 18811.18, 25985.24, 67552.47, 0.000, 0.000, 0.000, 15:42:25.853
43, 40745.51, 49071.67, 43380.73, 23816.10, 24871.19, 18585.34, 25767.34, 67430.34, 0.000, 0.000, 0.000, 15:42:25.854
44, 40556.43, 48880.45, 43185.43, 23609.45, 24692.04, 18386.48, 25567.91, 67239.56, 0.000, 0.000, 0.000, 15:42:25.854
45, 40498.57, 48829.44, 43152.19, 23574.25, 24658.13, 18365.18, 25552.60, 67155.77, 0.000, 0.000, 0.000, 15:42:25.854
46, 40411.84, 48753.04, 43059.18, 23474.31, 24568.84, 18279.14, 25475.42, 67122.82, 0.000, 0.000, 0.000, 15:42:25.854
47, 40281.11, 48626.13, 42902.65, 23307.82, 24428.27, 18114.79, 25325.62, 67056.10, 0.200, 0.788, 0.620, 15:42:25.854
48, 40094.65, 48441.66, 42693.86, 23101.67, 24236.31, 17922.10, 25129.13, 66903.55, 0.000, 0.000, 0.000, 15:42:25.854
49, 40108.01, 48465.71, 42726.01, 23144.85, 24264.74, 17982.40, 25179.69, 66853.80, 0.000, 0.000, 0.000, 15:42:25.855
50, 40143.31, 48511.06, 42754.95, 23177.15, 24314.67, 18020.82, 25219.94, 66905.34, 0.000, 0.000, 0.000, 15:42:25.855
51, 39993.02, 48370.69, 42588.07, 23006.96, 24165.28, 17856.38, 25046.83, 66834.13, 0.000, 0.000, 0.000, 15:42:25.855
52, 39792.72, 48180.77, 42380.23, 22799.52, 23945.11, 17651.71, 24839.76, 66689.09, 0.000, 0.000, 0.000, 15:42:25.855
53, 39737.73, 48131.89, 42349.49, 22775.67, 23914.06, 17630.97, 24819.46, 66581.73, 0.000, 0.000, 0.000, 15:42:25.855
54, 39824.59, 48225.18, 42439.99, 22867.13, 23997.14, 17721.24, 24913.10, 66624.34, 0.000, 0.000, 0.000, 15:42:25.855
55, 39911.45, 48307.28, 42512.14, 22927.95, 24051.59, 17780.52, 24966.43, 66714.10, 0.000, 0.000, 0.000, 15:42:25.856
56, 39907.65, 48298.39, 42493.17, 22898.24, 24020.93, 17743.66, 24934.00, 66725.74, 0.188, 0.780, 0.628, 15:42:25.856
57, 39960.13, 48347.47, 42569.81, 22975.51, 24100.50, 17818.05, 25015.09, 66711.82, 0.000, 0.000, 0.000, 15:42:25.856
58, 40071.74, 48462.45, 42704.62, 23103.32, 24235.91, 17931.53, 25139.52, 66750.29, 0.000, 0.000, 0.000, 15:42:25.856
59, 40049.25, 48431.13, 42671.40, 23046.88, 24219.28, 17857.50, 25072.87, 66688.69, 0.000, 0.000, 0.000, 15:42:25.856
60, 39891.07, 48260.97, 42483.71, 22860.11, 24023.68, 17697.89, 24909.72, 66572.41, 0.000, 0.000, 0.000, 15:42:25.856
61, 39752.87, 48114.41, 42334.83, 22723.30, 23900.18, 17572.72, 24780.53, 66387.38, 0.000, 0.000, 0.000, 15:42:25.856
62, 39818.76, 48174.94, 42381.90, 22782.98, 23977.43, 17635.37, 24838.69, 66304.68, 0.000, 0.000, 0.000, 15:42:25.857
63, 39861.23, 48218.81, 42395.27, 22801.55, 24020.23, 17666.62, 24877.85, 66333.23, 0.000, 0.000, 0.000, 15:42:25.876
64, 39792.61, 48151.94, 42293.34, 22693.37, 23934.20, 17564.78, 24793.02, 66315.59, 0.000, 0.000, 0.000, 15:42:25.876
65, 39668.31, 48031.13, 42174.45, 22569.81, 23839.92, 17452.17, 24690.96, 66171.17, 0.000, 0.000, 0.000, 15:42:25.876
66, 39619.18, 47992.50, 42144.17, 22540.21, 23827.43, 17429.24, 24674.83, 66030.56, 0.112, 0.732, 0.616, 15:42:25.877
67, 39548.01, 47931.19, 42061.80, 22455.54, 23759.32, 17357.89, 24597.27, 65922.65, 0.000, 0.000, 0.000, 15:42:25.896
68, 39340.21, 47729.54, 41827.82, 22220.72, 23532.34, 17127.72, 24375.52, 65748.26, 0.000, 0.000, 0.000, 15:42:25.896
69, 39071.72, 47467.30, 41547.62, 21944.07, 23278.13, 16851.61, 24101.55, 65472.44, 0.000, 0.000, 0.000, 15:42:25.896
70, 38955.80, 47363.19, 41457.14, 21865.68, 23180.37, 16771.92, 24021.55, 65271.59, 0.000, 0.000, 0.000, 15:42:25.896
71, 38907.25, 47321.57, 41411.70, 21829.23, 23131.28, 16725.68, 23983.85, 65212.29, 0.000, 0.000, 0.000, 15:42:25.896
72, 38785.13, 47192.98, 41279.78, 21684.61, 23010.09, 16578.31, 23829.26, 65132.64, 0.000, 0.000, 0.000, 15:42:25.897
73, 38580.34, 46991.64, 41081.41, 21486.75, 22783.78, 16379.33, 23625.75, 64965.21, 0.000, 0.000, 0.000, 15:42:25.897
74, 38512.03, 46922.19, 41046.81, 21457.21, 22726.09, 16336.55, 23587.13, 64838.12, 0.000, 0.000, 0.000, 15:42:25.897
75, 38541.27, 46948.25, 41087.38, 21494.24, 22738.63, 16362.91, 23611.60, 64842.72, 0.000, 0.000, 0.000, 15:42:25.897
76, 38503.40, 46902.23, 41034.85, 21433.87, 22667.37, 16291.81, 23541.91, 64842.74, 0.116, 0.770, 0.630, 15:42:25.898
77, 38376.13, 46759.60, 40897.23, 21287.53, 22509.39, 16130.65, 23381.80, 64748.48, 0.000, 0.000, 0.000, 15:42:25.898
78, 38320.43, 46692.23, 40861.34, 21259.21, 22460.78, 16093.79, 23345.99, 64646.29, 0.000, 0.000, 0.000, 15:42:25.898
79, 38367.68, 46727.75, 40916.43, 21317.75, 22510.35, 16137.02, 23395.59, 64660.38, 0.000, 0.000, 0.000, 15:42:25.898
80, 38380.02, 46714.47, 40904.61, 21305.55, 22478.48, 16110.42, 23368.39, 64681.21, 0.000, 0.000, 0.000, 15:42:25.898
81, 38278.23, 46593.24, 40774.09, 21176.56, 22331.67, 15972.29, 23222.72, 64613.30, 0.000, 0.000, 0.000, 15:42:25.898
82, 38203.04, 46504.34, 40711.20, 21117.39, 22266.52, 15900.11, 23159.42, 64493.27, 0.000, 0.000, 0.000, 15:42:25.899
83, 38238.02, 46534.07, 40761.18, 21168.20, 22313.90, 15951.52, 23207.90, 64487.64, 0.000, 0.000, 0.000, 15:42:25.899
84, 38247.99, 46532.17, 40747.21, 21142.74, 22297.90, 15924.12, 23188.55, 64525.06, 0.000, 0.000, 0.000, 15:42:25.899
85, 38138.91, 46406.15, 40596.04, 20994.19, 22157.53, 15792.47, 23040.29, 64484.24, 0.000, 0.000, 0.000, 15:42:25.899
86, 38016.36, 46279.64, 40464.08, 20874.36, 22048.43, 15680.04, 22921.47, 64356.35, 0.130, 0.808, 0.638, 15:42:25.899
87, 38013.07, 46280.89, 40471.86, 20890.48, 22073.76, 15700.18, 22943.33, 64305.77, 0.000, 0.000, 0.000, 15:42:25.899
88, 38003.35, 46276.74, 40452.23, 20869.11, 22068.70, 15684.24, 22934.59, 64323.54, 0.000, 0.000, 0.000, 15:42:25.899
89, 37902.99, 46174.93, 40321.16, 20729.16, 21950.33, 15552.63, 22803.88, 64281.45, 0.000, 0.000, 0.000, 15:42:25.900
90, 37734.04, 46005.57, 40144.83, 20550.55, 21771.63, 15385.06, 22637.22, 64133.99, 0.000, 0.000, 0.000, 15:42:25.900
91, 37710.45, 45984.42, 40147.11, 20548.40, 21794.34, 15390.20, 22641.51, 64059.67, 0.000, 0.000, 0.000, 15:42:25.900
92, 37777.80, 46053.84, 40201.60, 20601.42, 21863.16, 15449.93, 22702.69, 64125.50, 0.000, 0.000, 0.000, 15:42:25.900
93, 37743.27, 46022.89, 40140.13, 20542.77, 21816.29, 15401.00, 22651.32, 64161.71, 0.000, 0.000, 0.000, 15:42:25.900
94, 37611.17, 45886.97, 39990.58, 20400.08, 21667.71, 15262.08, 22516.65, 64067.99, 0.000, 0.000, 0.000, 15:42:25.900
95, 37621.54, 45896.13, 40029.87, 20434.93, 21699.95, 15293.93, 22547.52, 64030.14, 0.000, 0.000, 0.000, 15:42:25.900
96, 37724.63, 46002.93, 40144.65, 20542.68, 21808.33, 15398.43, 22653.63, 64123.42, 0.114, 0.800, 0.632, 15:42:25.901
97, 37772.68, 46047.86, 40175.83, 20565.59, 21830.30, 15421.03, 22681.95, 64215.17, 0.000, 0.000, 0.000, 15:42:25.901
98, 37724.71, 45995.06, 40119.68, 20500.66, 21769.84, 15360.45, 22624.86, 64212.96, 0.000, 0.000, 0.000, 15:42:25.901
99, 37752.95, 46018.80, 40171.52, 20552.45, 21820.29, 15420.11, 22682.26, 64209.96, 0.000, 0.000, 0.000, 15:42:25.901
100, 37890.59, 46158.09, 40315.37, 20693.96, 21956.97, 15559.90, 22821.06, 64324.72, 0.000, 0.000, 0.000, 15:42:25.901
101, 37924.83, 46188.61, 40324.80, 20701.49, 21959.98, 15555.23, 22818.45, 64400.16, 0.000, 0.000, 0.000, 15:42:25.901
102, 37857.26, 46115.04, 40219.95, 20599.37, 21853.77, 15455.90, 22719.83, 64389.96, 0.000, 0.000, 0.000, 15:42:25.901
103, 37906.59, 46160.26, 40263.11, 20645.97, 21905.40, 15507.26, 22782.55, 64385.11, 0.000, 0.000, 0.000, 15:42:25.902
104, 38052.46, 46303.54, 40424.65, 20805.67, 22082.70, 15663.88, 22953.32, 64504.29, 0.000, 0.000, 0.000, 15:42:25.902
105, 38158.38, 46395.94, 40545.97, 20915.17, 22208.07, 15773.58, 23070.33, 64673.52, 0.000, 0.000, 0.000, 15:42:25.902
106, 38226.82, 46454.10, 40591.19, 20949.37, 22251.34, 15816.12, 23117.18, 64813.30, 0.098, 0.810, 0.648, 15:42:25.902
107, 38422.34, 46638.10, 40780.67, 21135.79, 22449.98, 16007.51, 23315.91, 64966.82, 0.000, 0.000, 0.000, 15:42:25.902
108, 38679.25, 46891.41, 41048.78, 21399.85, 22729.51, 16282.64, 23598.88, 65196.01, 0.000, 0.000, 0.000, 15:42:25.902
109, 38688.23, 46901.65, 41056.78, 21398.13, 22743.84, 16288.65, 23611.94, 65284.84, 0.000, 0.000, 0.000, 15:42:25.903
110, 38607.61, 46821.47, 40949.60, 21278.26, 22648.26, 16175.24, 23502.88, 65238.88, 0.000, 0.000, 0.000, 15:42:25.903
111, 38615.63, 46829.79, 40947.57, 21281.56, 22674.79, 16191.92, 23524.88, 65202.25, 0.000, 0.000, 0.000, 15:42:25.903
112, 38701.20, 46927.66, 41039.01, 21387.04, 22804.93, 16313.98, 23647.97, 65230.95, 0.000, 0.000, 0.000, 15:42:25.903
113, 38725.74, 46961.71, 41034.05, 21389.63, 22839.08, 16335.95, 23664.66, 65236.61, 0.000, 0.000, 0.000, 15:42:25.903
114, 38729.52, 46977.02, 40982.68, 21352.46, 22823.37, 16318.47, 23637.97, 65227.51, 0.000, 0.000, 0.000, 15:42:25.903
115, 38693.35, 46953.88, 40928.19, 21315.88, 22798.89, 16300.63, 23611.80, 65151.89, 0.000, 0.000, 0.000, 15:42:25.903
116, 38771.29, 47038.35, 41024.28, 21425.35, 22918.88, 16421.92, 23731.05, 65132.60, 0.062, 0.710, 0.610, 15:42:25.904
117, 38874.62, 47155.36, 41121.75, 21533.07, 23036.29, 16537.88, 23842.92, 65197.06, 0.000, 0.000, 0.000, 15:42:25.904
118, 38881.82, 47169.73, 41097.48, 21507.38, 23009.91, 16512.39, 23813.57, 65211.95, 0.000, 0.000, 0.000, 15:42:25.904
119, 38797.22, 47092.49, 41005.14, 21417.46, 22908.41, 16419.01, 23722.46, 65126.14, 0.000, 0.000, 0.000, 15:42:25.904
120, 38838.73, 47141.55, 41083.60, 21500.16, 22990.29, 16500.73, 23805.21, 65089.71, 0.000, 0.000, 0.000, 15:42:25.904
121, 38973.08, 47280.06, 41231.43, 21649.72, 23133.18, 16648.99, 23950.88, 65196.01, 0.000, 0.000, 0.000, 15:42:25.904
122, 39045.97, 47354.20, 41282.71, 21705.53, 23180.90, 16695.17, 24002.15, 65307.66, 0.000, 0.000, 0.000, 15:42:25.904
123, 39021.88, 47324.61, 41246.32, 21667.22, 23141.05, 16642.21, 23960.42, 65304.26, 0.000, 0.000, 0.000, 15:42:25.905
124, 39104.89, 47397.45, 41358.57, 21782.85, 23251.65, 16751.49, 24076.29, 65327.35, 0.000, 0.000, 0.000, 15:42:25.906
125, 39300.18, 47586.10, 41560.99, 21989.00, 23440.88, 16946.00, 24277.84, 65506.10, 0.058, 0.752, 0.622, 15:42:25.906
126, 39441.11, 47713.98, 41694.96, 22109.32, 23559.14, 17043.56, 24389.42, 65684.91, 0.000, 0.000, 0.000, 15:42:25.907
127, 39497.27, 47751.08, 41740.34, 22140.16, 23580.55, 17060.04, 24399.37, 65749.46, 0.000, 0.000, 0.000, 15:42:25.907
128, 39623.83, 47861.88, 41890.27, 22285.72, 23713.90, 17187.48, 24530.97, 65788.52, 0.000, 0.000, 0.000, 15:42:25.907
129, 39836.29, 48066.75, 42110.15, 22506.06, 23942.36, 17414.20, 24760.28, 66001.44, 0.000, 0.000, 0.000, 15:42:25.907
130, 39996.23, 48213.18, 42235.07, 22623.38, 24079.27, 17538.32, 24886.97, 66220.91, 0.000, 0.000, 0.000, 15:42:25.907
131, 40029.07, 48233.10, 42211.60, 22605.95, 24077.52, 17537.38, 24870.16, 66284.19, 0.000, 0.000, 0.000, 15:42:25.907
132, 40058.21, 48252.79, 42218.84, 22638.43, 24125.33, 17576.81, 24902.23, 66277.44, 0.000, 0.000, 0.000, 15:42:25.907
133, 40190.40, 48387.30, 42337.53, 22778.17, 24276.32, 17726.23, 25044.70, 66376.88, 0.000, 0.000, 0.000, 15:42:25.908
134, 40264.61, 48462.65, 42380.05, 22822.07, 24350.48, 17777.97, 25106.89, 66478.31, 0.000, 0.000, 0.000, 15:42:25.908
135, 40168.68, 48369.64, 42246.00, 22697.03, 24244.38, 17667.85, 24986.72, 66454.23, 0.048, 0.726, 0.612, 15:42:25.908
136, 40014.88, 48225.52, 42091.73, 22555.61, 24102.27, 17529.71, 24836.95, 66316.41, 0.000, 0.000, 0.000, 15:42:25.908
137, 39984.45, 48205.74, 42078.07, 22550.92, 24092.54, 17527.39, 24827.69, 66240.11, 0.000, 0.000, 0.000, 15:42:25.908
138, 39943.08, 48175.96, 42031.09, 22512.18, 24053.83, 17487.15, 24781.06, 66235.81, 0.000, 0.000, 0.000, 15:42:25.908
139, 39785.57, 48024.98, 41848.99, 22336.97, 23877.23, 17313.01, 24605.60, 66171.09, 0.000, 0.000, 0.000, 15:42:25.908
140, 39600.20, 47838.88, 41657.37, 22154.36, 23686.23, 17129.48, 24430.54, 66021.48, 0.000, 0.000, 0.000, 15:42:25.909
141, 39596.65, 47840.35, 41673.66, 22182.21, 23708.36, 17147.01, 24448.58, 65963.77, 0.000, 0.000, 0.000, 15:42:25.909
142, 39637.46, 47885.21, 41707.97, 22226.15, 23741.22, 17193.68, 24483.83, 66007.56, 0.000, 0.000, 0.000, 15:42:25.909
143, 39601.99, 47839.23, 41637.83, 22160.70, 23658.96, 17118.51, 24409.33, 66026.58, 0.000, 0.000, 0.000, 15:42:25.909
144, 39479.59, 47700.59, 41503.41, 22028.96, 23514.79, 16977.11, 24272.50, 65940.84, 0.000, 0.000, 0.000, 15:42:25.909
145, 39479.13, 47691.67, 41523.24, 22058.06, 23533.44, 16997.58, 24293.08, 65887.33, 0.082, 0.780, 0.636, 15:42:25.909
146, 39549.91, 47751.95, 41587.30, 22128.09, 23572.55, 17057.02, 24355.98, 65939.79, 0.000, 0.000, 0.000, 15:42:25.909
147, 39530.51, 47717.57, 41544.76, 22079.57, 23515.51, 16998.59, 24292.68, 65951.66, 0.000, 0.000, 0.000, 15:42:25.910
148, 39379.61, 47554.90, 41372.99, 21916.91, 23352.12, 16833.12, 24125.29, 65848.98, 0.000, 0.000, 0.000, 15:42:25.910
149, 39325.75, 47486.64, 41325.45, 21883.09, 23307.57, 16796.13, 24089.57, 65750.09, 0.000, 0.000, 0.000, 15:42:25.910
150, 39380.66, 47534.31, 41376.21, 21939.33, 23349.17, 16844.25, 24134.56, 65775.26, 0.000, 0.000, 0.000, 15:42:25.910
151, 39365.87, 47516.32, 41340.20, 21906.56, 23321.81, 16811.78, 24103.96, 65832.99, 0.000, 0.000, 0.000, 15:42:25.910
152, 39256.90, 47391.98, 41196.84, 21761.63, 23182.09, 16667.99, 23963.10, 65799.76, 0.000, 0.000, 0.000, 15:42:25.910
153, 39218.23, 47346.76, 41166.28, 21740.31, 23154.19, 16648.61, 23940.77, 65761.09, 0.000, 0.000, 0.000, 15:42:26.320
154, 39313.14, 47446.40, 41271.38, 21855.20, 23269.69, 16763.76, 24056.58, 65826.76, 0.000, 0.000, 0.000, 15:42:26.321
155, 39326.29, 47455.90, 41253.27, 21839.80, 23265.01, 16754.60, 24048.98, 65712.70, 0.120, 0.794, 0.660, 15:42:26.321
156, 39154.71, 47276.42, 41046.77, 21631.30, 23076.16, 16551.49, 23853.87, 65499.64, 0.000, 0.000, 0.000, 15:42:26.321
157, 38983.32, 47105.68, 40881.70, 21473.61, 22927.03, 16398.29, 23701.16, 65271.54, 0.000, 0.000, 0.000, 15:42:26.322
158, 38961.68, 47084.86, 40875.04, 21465.03, 22926.56, 16394.67, 23697.59, 65156.83, 0.000, 0.000, 0.000, 15:42:26.322
159, 38911.26, 47039.98, 40816.43, 21403.31, 22867.64, 16334.95, 23642.13, 65113.09, 0.000, 0.000, 0.000, 15:42:26.322
160, 38751.11, 46879.18, 40634.71, 21214.38, 22683.35, 16151.42, 23463.92, 65004.35, 0.000, 0.000, 0.000, 15:42:26.322
161, 38588.52, 46714.16, 40474.18, 21054.49, 22525.89, 15993.08, 23319.39, 64830.72, 0.000, 0.000, 0.000, 15:42:26.323
162, 38591.74, 46726.45, 40506.93, 21087.24, 22577.61, 16017.66, 23350.80, 64768.78, 0.000, 0.000, 0.000, 15:42:26.323
163, 38624.89, 46766.73, 40526.80, 21115.76, 22594.26, 16030.02, 23364.19, 64789.50, 0.000, 0.000, 0.000, 15:42:26.323
164, 38545.96, 46689.20, 40408.73, 21004.11, 22479.55, 15923.94, 23259.47, 64757.89, 0.000, 0.000, 0.000, 15:42:26.323
165, 38402.51, 46543.57, 40271.00, 20869.18, 22347.47, 15790.57, 23137.27, 64628.93, 0.112, 0.794, 0.678, 15:42:26.324
166, 38394.46, 46522.88, 40315.64, 20912.92, 22399.76, 15831.43, 23187.45, 64567.04, 0.000, 0.000, 0.000, 15:42:26.324
167, 38427.70, 46557.21, 40351.00, 20944.54, 22437.75, 15858.41, 23217.94, 64590.48, 0.000, 0.000, 0.000, 15:42:26.324
168, 38337.84, 46461.92, 40225.27, 20813.92, 22316.74, 15727.56, 23093.13, 64535.39, 0.000, 0.000, 0.000, 15:42:26.324
169, 38120.27, 46241.78, 39997.75, 20581.82, 22093.07, 15491.14, 22873.84, 64359.45, 0.000, 0.000, 0.000, 15:42:26.325
170, 38014.86, 46139.23, 39912.30, 20502.18, 22017.61, 15415.15, 22798.85, 64179.37, 0.000, 0.000, 0.000, 15:42:26.325
171, 37970.43, 46100.65, 39861.81, 20456.18, 21983.48, 15380.19, 22758.79, 64098.27, 0.000, 0.000, 0.000, 15:42:26.325
172, 37850.04, 45985.61, 39707.96, 20299.83, 21833.14, 15231.71, 22604.18, 64012.09, 0.000, 0.000, 0.000, 15:42:26.325
173, 37620.98, 45756.46, 39451.52, 20040.08, 21590.98, 14977.21, 22348.39, 63813.25, 0.000, 0.000, 0.000, 15:42:26.325
174, 37449.99, 45587.68, 39297.29, 19896.65, 21448.46, 14838.56, 22208.42, 63584.81, 0.000, 0.000, 0.000, 15:42:26.325
175, 37369.28, 45517.94, 39231.64, 19832.17, 21392.65, 14780.45, 22148.63, 63480.50, 0.098, 0.752, 0.668, 15:42:26.325
176, 37264.20, 45410.38, 39109.70, 19701.36, 21284.98, 14657.13, 22025.50, 63403.20, 0.000, 0.000, 0.000, 15:42:26.325
177, 37074.48, 45220.82, 38901.15, 19484.87, 21079.37, 14444.08, 21818.19, 63241.13, 0.000, 0.000, 0.000, 15:42:26.326
178, 36988.71, 45135.34, 38836.04, 19419.26, 21020.41, 14380.51, 21763.92, 63097.99, 0.000, 0.000, 0.000, 15:42:26.326
179, 37101.64, 45252.87, 38959.00, 19545.35, 21153.40, 14508.96, 21896.33, 63151.25, 0.000, 0.000, 0.000, 15:42:26.326
180, 37159.28, 45311.21, 39003.97, 19594.63, 21204.18, 14563.14, 21944.34, 63244.84, 0.000, 0.000, 0.000, 15:42:26.326
181, 37106.13, 45247.93, 38921.92, 19505.43, 21121.26, 14476.20, 21858.11, 63239.48, 0.000, 0.000, 0.000, 15:42:26.326
182, 37078.48, 45219.34, 38892.57, 19476.39, 21095.17, 14456.12, 21836.00, 63182.34, 0.000, 0.000, 0.000, 15:42:26.327
183, 37175.78, 45321.22, 38998.79, 19588.53, 21193.59, 14570.97, 21945.50, 63229.73, 0.000, 0.000, 0.000, 15:42:26.345
184, 37247.97, 45397.02, 39061.35, 19652.17, 21250.72, 14612.25, 22001.36, 63317.39, 0.000, 0.000, 0.000, 15:42:26.345
185, 37141.20, 45288.90, 38931.82, 19520.76, 21126.58, 14479.82, 21867.36, 63275.82, 0.096, 0.738, 0.662, 15:42:26.346
186, 36961.27, 45107.88, 38747.66, 19345.34, 20949.15, 14328.16, 21694.85, 63084.62, 0.000, 0.000, 0.000, 15:42:26.346
187, 36917.64, 45066.88, 38714.23, 19321.54, 20940.97, 14317.59, 21683.45, 62977.96, 0.000, 0.000, 0.000, 15:42:26.346
188, 36866.47, 45019.07, 38642.01, 19256.45, 20896.82, 14258.11, 21621.65, 62931.20, 0.000, 0.000, 0.000, 15:42:26.346
189, 36695.64, 44847.57, 38430.43, 19055.98, 20701.34, 14054.29, 21415.68, 62800.84, 0.000, 0.000, 0.000, 15:42:26.347
190, 36436.56, 44585.87, 38153.53, 18787.51, 20432.98, 13790.36, 21141.80, 62549.07, 0.000, 0.000, 0.000, 15:42:26.347
191, 36319.26, 44471.27, 38048.77, 18693.34, 20341.72, 13700.01, 21045.75, 62349.99, 0.000, 0.000, 0.000, 15:42:26.348
192, 36251.04, 44409.00, 37971.50, 18624.23, 20277.84, 13633.11, 20975.46, 62284.41, 0.000, 0.000, 0.000, 15:42:26.349
193, 36082.96, 44239.71, 37773.91, 18427.00, 20084.74, 13429.69, 20778.58, 62173.12, 0.000, 0.000, 0.000, 15:42:26.349
194, 35819.59, 43971.60, 37491.16, 18147.29, 19793.72, 13148.82, 20497.09, 61932.50, 0.100, 0.724, 0.648, 15:42:26.350
195, 35679.29, 43832.26, 37380.16, 18042.24, 19686.32, 13047.27, 20389.24, 61738.82, 0.000, 0.000, 0.000, 15:42:26.350
196, 35637.31, 43795.18, 37349.72, 18012.55, 19667.32, 13016.67, 20354.53, 61671.21, 0.000, 0.000, 0.000, 15:42:26.350
197, 35533.77, 43681.86, 37222.11, 17882.98, 19541.68, 12873.64, 20224.21, 61602.10, 0.000, 0.000, 0.000, 15:42:26.350
198, 35327.98, 43461.98, 36983.87, 17653.52, 19307.03, 12636.51, 19992.36, 61460.21, 0.000, 0.000, 0.000, 15:42:26.350
199, 35230.75, 43353.46, 36891.42, 17577.08, 19220.31, 12552.69, 19911.09, 61285.64, 0.000, 0.000, 0.000, 15:42:26.350
200, 35264.12, 43382.05, 36922.98, 17619.83, 19251.69, 12583.72, 19942.09, 61259.40, 0.000, 0.000, 0.000, 15:42:26.350
201, 35239.96, 43345.69, 36875.55, 17579.18, 19203.14, 12531.97, 19894.64, 61252.76, 0.000, 0.000, 0.000, 15:42:26.351
202, 35106.68, 43196.06, 36710.44, 17416.52, 19031.66, 12364.22, 19733.86, 61142.50, 0.000, 0.000, 0.000, 15:42:26.351
203, 35027.37, 43104.18, 36637.39, 17347.70, 18954.48, 12288.21, 19659.52, 60999.23, 0.000, 0.000, 0.000, 15:42:26.351
204, 35076.70, 43151.56, 36697.09, 17411.96, 19016.26, 12349.79, 19719.45, 60999.09, 0.132, 0.772, 0.654, 15:42:26.351
205, 35097.40, 43165.22, 36689.56, 17410.31, 19012.82, 12349.05, 19717.19, 61040.80, 0.000, 0.000, 0.000, 15:42:26.351
206, 34997.89, 43054.53, 36543.43, 17279.42, 18880.56, 12227.14, 19580.17, 60991.29, 0.000, 0.000, 0.000, 15:42:26.351
207, 34919.55, 42966.73, 36446.98, 17203.71, 18800.07, 12165.99, 19503.37, 60880.81, 0.000, 0.000, 0.000, 15:42:26.352
208, 35001.29, 43048.03, 36530.26, 17304.00, 18913.64, 12260.85, 19603.57, 60874.50, 0.000, 0.000, 0.000, 15:42:26.352
209, 35084.95, 43128.49, 36587.05, 17367.06, 18991.47, 12320.55, 19665.91, 60954.30, 0.000, 0.000, 0.000, 15:42:26.352
210, 35034.64, 43069.55, 36503.32, 17286.01, 18917.91, 12245.54, 19586.03, 60974.17, 0.000, 0.000, 0.000, 15:42:26.352
211, 34954.64, 42988.17, 36421.18, 17210.53, 18851.13, 12174.03, 19519.02, 60895.18, 0.000, 0.000, 0.000, 15:42:26.352
212, 35059.27, 43099.06, 36540.74, 17342.34, 18985.64, 12305.13, 19657.93, 60916.53, 0.000, 0.000, 0.000, 15:42:26.353
213, 35208.46, 43253.93, 36674.92, 17484.03, 19133.67, 12444.31, 19803.51, 61047.80, 0.000, 0.000, 0.000, 15:42:26.353
214, 35263.21, 43300.91, 36689.63, 17503.67, 19158.30, 12463.94, 19827.31, 61145.90, 0.148, 0.766, 0.666, 15:42:26.357
215, 35256.14, 43284.44, 36661.78, 17480.96, 19134.93, 12437.43, 19802.71, 61138.01, 0.000, 0.000, 0.000, 15:42:26.357
216, 35388.27, 43427.85, 36824.77, 17658.08, 19299.68, 12607.90, 19973.50, 61204.50, 0.000, 0.000, 0.000, 15:42:26.357
217, 35569.20, 43619.07, 37017.59, 17864.27, 19495.44, 12809.54, 20174.30, 61386.63, 0.000, 0.000, 0.000, 15:42:26.357
218, 35639.59, 43678.41, 37045.73, 17897.58, 19523.80, 12837.12, 20203.14, 61502.63, 0.000, 0.000, 0.000, 15:42:26.358
219, 35592.20, 43616.88, 36961.47, 17813.15, 19435.82, 12745.99, 20105.77, 61456.50, 0.000, 0.000, 0.000, 15:42:26.358
220, 35659.52, 43684.83, 37037.33, 17903.70, 19508.42, 12827.33, 20160.29, 61417.18, 0.000, 0.000, 0.000, 15:42:26.358
221, 35791.24, 43831.08, 37173.95, 18053.86, 19650.85, 12957.73, 20320.73, 61505.41, 0.000, 0.000, 0.000, 15:42:26.359
222, 35794.82, 43836.80, 37166.37, 18056.68, 19657.69, 12988.62, 20402.09, 61634.80, 0.000, 0.000, 0.000, 15:42:26.359
223, 35688.56, 43725.29, 37030.36, 17929.52, 19532.79, 12867.94, 20267.35, 61615.73, 0.000, 0.000, 0.000, 15:42:26.359
224, 35697.07, 43731.05, 37032.79, 17947.96, 19544.59, 12867.83, 20264.52, 61524.74, 0.188, 0.760, 0.694, 15:42:26.359
225, 35858.19, 43901.35, 37192.12, 18125.43, 19723.54, 13037.15, 20435.93, 61624.11, 0.000, 0.000, 0.000, 15:42:26.359
226, 35923.57, 43981.88, 37238.07, 18185.69, 19782.39, 13095.93, 20492.68, 61751.03, 0.000, 0.000, 0.000, 15:42:26.360
227, 35794.08, 43862.14, 37072.56, 18033.25, 19632.92, 12939.47, 20339.55, 61675.28, 0.000, 0.000, 0.000, 15:42:26.360
228, 35686.70, 43772.18, 36968.69, 17953.39, 19560.90, 12856.97, 20261.28, 61485.24, 0.000, 0.000, 0.000, 15:42:26.360
229, 35724.68, 43843.04, 37027.99, 18032.52, 19650.04, 12939.38, 20351.44, 61392.21, 0.000, 0.000, 0.000, 15:42:26.360
230, 35758.21, 43908.35, 37058.86, 18075.52, 19714.89, 12988.84, 20412.71, 61309.78, 0.000, 0.000, 0.000, 15:42:26.360
231, 35692.14, 43871.64, 36971.91, 18008.96, 19663.01, 12925.05, 20361.05, 61041.92, 0.000, 0.000, 0.000, 15:42:26.360
232, 35657.09, 43868.16, 36943.81, 18009.45, 19665.58, 12931.56, 20365.14, 60637.24, 0.000, 0.000, 0.000, 15:42:26.360
233, 35849.27, 44093.89, 37160.85, 18245.55, 19927.16, 13174.03, 20605.04, 60435.83, 0.000, 0.000, 0.000, 15:42:26.360
234, 36085.15, 44359.49, 37392.10, 18487.78, 20197.06, 13424.77, 20860.35, 60388.29, 0.204, 0.636, 0.692, 15:42:26.361
235, 36204.35, 44500.89, 37496.91, 18596.27, 20330.56, 13544.26, 20979.26, 60302.30, 0.000, 0.000, 0.000, 15:42:26.361
236, 36238.84, 44548.88, 37537.77, 18644.60, 20384.83, 13595.63, 21036.37, 60170.96, 0.000, 0.000, 0.000, 15:42:26.361
237, 36374.33, 44697.88, 37703.99, 18817.04, 20569.26, 13767.67, 21209.10, 60212.25, 0.000, 0.000, 0.000, 15:42:26.361
238, 36520.27, 44860.69, 37872.21, 18978.26, 20736.70, 13926.81, 21369.07, 60323.73, 0.000, 0.000, 0.000, 15:42:26.361
239, 36547.27, 44896.00, 37897.58, 18991.74, 20750.82, 13931.26, 21379.76, 60299.55, 0.000, 0.000, 0.000, 15:42:26.361
240, 36462.54, 44815.49, 37817.14, 18903.29, 20670.47, 13838.61, 21296.61, 60196.60, 0.000, 0.000, 0.000, 15:42:26.361
241, 36505.29, 44860.31, 37887.28, 18972.41, 20743.00, 13906.83, 21368.51, 60239.02, 0.000, 0.000, 0.000, 15:42:26.361
242, 36608.36, 44968.11, 37999.28, 19077.01, 20858.33, 14011.26, 21475.31, 60381.43, 0.000, 0.000, 0.000, 15:42:26.362
243, 36608.16, 44968.02, 37979.12, 19051.08, 20836.61, 13981.22, 21444.75, 60430.42, 0.000, 0.000, 0.000, 15:42:26.362
244, 36496.57, 44846.23, 37852.97, 18916.37, 20695.59, 13845.32, 21304.59, 60354.09, 0.164, 0.640, 0.672, 15:42:26.376
245, 36493.18, 44828.01, 37864.21, 18923.52, 20707.28, 13855.53, 21312.97, 60373.76, 0.000, 0.000, 0.000, 15:42:26.377
246, 36587.26, 44909.46, 37954.33, 19007.30, 20797.04, 13937.07, 21391.83, 60508.74, 0.000, 0.000, 0.000, 15:42:26.378
247, 36585.51, 44889.05, 37922.66, 18965.48, 20758.27, 13894.83, 21350.79, 60551.54, 0.000, 0.000, 0.000, 15:42:26.378
248, 36448.68, 44731.47, 37753.88, 18786.24, 20576.81, 13716.86, 21167.73, 60440.75, 0.000, 0.000, 0.000, 15:42:26.378
249, 36396.71, 44656.82, 37697.80, 18734.81, 20510.14, 13671.22, 21116.68, 60377.56, 0.000, 0.000, 0.000, 15:42:26.378
250, 36493.89, 44736.79, 37789.71, 18826.34, 20592.95, 13764.72, 21206.48, 60489.77, 0.000, 0.000, 0.000, 15:42:26.378
251, 36545.59, 44769.34, 37828.36, 18844.15, 20651.87, 13777.15, 21220.66, 60583.04, 0.000, 0.000, 0.000, 15:42:26.378
252, 36488.33, 44687.15, 37736.94, 18732.08, 20548.05, 13667.69, 21116.79, 60541.55, 0.000, 0.000, 0.000, 15:42:26.378
253, 36485.49, 44656.08, 37725.56, 18710.85, 20522.66, 13644.29, 21090.66, 60497.63, 0.000, 0.000, 0.000, 15:42:26.379
254, 36655.43, 44807.98, 37893.69, 18876.52, 20673.75, 13803.34, 21232.37, 60645.36, 0.144, 0.722, 0.666, 15:42:26.379
255, 36809.75, 44937.76, 38011.73, 18995.41, 20783.30, 13933.61, 21345.31, 60832.98, 0.000, 0.000, 0.000, 15:42:26.379
0, 36827.29, 44926.49, 37972.95, 18960.87, 20751.89, 13915.30, 21341.20, 60923.66, 0.000, 0.000, 0.000, 15:42:26.379
1, 36828.68, 44902.93, 37943.34, 18941.72, 20752.72, 13904.82, 21364.36, 60918.31, 0.000, 0.000, 0.000, 15:42:26.379
2, 36993.52, 45052.11, 38092.69, 19110.49, 20922.89, 14092.13, 21526.38, 61062.89, 0.000, 0.000, 0.000, 15:42:26.379
3, 37148.48, 45196.54, 38208.25, 19237.21, 21053.17, 14224.63, 21638.81, 61228.38, 0.000, 0.000, 0.000, 15:42:26.380
4, 37134.58, 45168.61, 38146.40, 19177.08, 21015.49, 14168.99, 21602.36, 61256.41, 0.000, 0.000, 0.000, 15:42:26.380
5, 37038.79, 45064.78, 38030.33, 19070.20, 20920.54, 14069.48, 21497.30, 61166.04, 0.000, 0.000, 0.000, 15:42:26.380
6, 37087.20, 45113.78, 38085.16, 19136.69, 20994.17, 14138.06, 21564.67, 61200.01, 0.000, 0.000, 0.000, 15:42:26.380
7, 37154.90, 45182.33, 38138.64, 19191.97, 21068.42, 14201.87, 21629.63, 61291.36, 0.142, 0.718, 0.680, 15:42:26.380
8, 37093.61, 45118.18, 38043.43, 19097.75, 20990.72, 14120.89, 21546.66, 61272.79, 0.000, 0.000, 0.000, 15:42:26.381
9, 36937.91, 44963.08, 37866.27, 18930.05, 20829.95, 13957.23, 21391.94, 61138.61, 0.000, 0.000, 0.000, 15:42:26.381
10, 36923.65, 44950.99, 37870.18, 18949.92, 20847.65, 13980.23, 21422.85, 61120.26, 0.000, 0.000, 0.000, 15:42:26.381
11, 36985.77, 45015.59, 37932.77, 19015.70, 20925.90, 14054.42, 21493.95, 61201.51, 0.000, 0.000, 0.000, 15:42:26.381
12, 36942.49, 44972.13, 37864.30, 18947.60, 20861.98, 13988.68, 21435.01, 61183.96, 0.000, 0.000, 0.000, 15:42:26.382
13, 36777.69, 44805.77, 37675.38, 18764.80, 20682.69, 13808.08, 21258.99, 61017.00, 0.000, 0.000, 0.000, 15:42:26.382
14, 36718.30, 44750.52, 37633.03, 18734.96, 20648.45, 13781.59, 21236.15, 60920.26, 0.000, 0.000, 0.000, 15:42:26.382
15, 36776.17, 44815.87, 37699.03, 18802.91, 20719.44, 13850.66, 21302.71, 60981.88, 0.000, 0.000, 0.000, 15:42:26.382
16, 36763.79, 44803.85, 37663.71, 18765.09, 20694.50, 13805.53, 21262.10, 60977.41, 0.000, 0.000, 0.000, 15:42:26.382
17, 36608.65, 44644.68, 37487.29, 18584.94, 20528.36, 13634.74, 21092.98, 60850.14, 0.142, 0.704, 0.710, 15:42:26.786
18, 36526.62, 44560.37, 37417.36, 18518.62, 20470.13, 13570.50, 21045.60, 60768.91, 0.000, 0.000, 0.000, 15:42:26.786
19, 36585.42, 44631.43, 37482.73, 18592.67, 20553.70, 13663.49, 21131.61, 60823.54, 0.000, 0.000, 0.000, 15:42:26.787
20, 36570.83, 44624.21, 37451.53, 18568.58, 20528.09, 13648.98, 21105.01, 60849.74, 0.000, 0.000, 0.000, 15:42:26.787
21, 36366.98, 44426.68, 37227.30, 18349.64, 20309.15, 13433.82, 20883.12, 60692.88, 0.000, 0.000, 0.000, 15:42:26.787
22, 36142.41, 44211.37, 37020.59, 18144.74, 20119.81, 13209.84, 20681.04, 60449.42, 0.000, 0.000, 0.000, 15:42:26.787
23, 36009.06, 44095.74, 36918.57, 18051.13, 20022.18, 13119.62, 20591.19, 60317.21, 0.000, 0.000, 0.000, 15:42:26.787
24, 35793.93, 43900.16, 36712.45, 17850.33, 19834.58, 12930.71, 20408.84, 60159.36, 0.000, 0.000, 0.000, 15:42:26.788
25, 35454.36, 43574.84, 36362.33, 17500.48, 19494.30, 12574.78, 20061.12, 59870.62, 0.000, 0.000, 0.000, 15:42:26.788
26, 35118.55, 43255.27, 36043.84, 17190.77, 19180.61, 12273.61, 19742.42, 59518.16, 0.000, 0.000, 0.000, 15:42:26.788
27, 34972.10, 43131.24, 35932.77, 17091.55, 19089.64, 12169.67, 19643.76, 59375.39, 0.140, 0.656, 0.720, 15:42:26.788
28, 34817.91, 42992.17, 35784.38, 16943.34, 18949.94, 12017.77, 19492.29, 59262.99, 0.000, 0.000, 0.000, 15:42:26.788
29, 34547.59, 42732.46, 35493.12, 16653.84, 18662.97, 11723.83, 19201.98, 59035.05, 0.000, 0.000, 0.000, 15:42:26.788
30, 34283.71, 42478.26, 35238.98, 16400.84, 18402.35, 11468.99, 18940.13, 58755.89, 0.000, 0.000, 0.000, 15:42:26.788
31, 34269.36, 42469.68, 35262.31, 16425.63, 18426.35, 11493.56, 18964.81, 58703.41, 0.000, 0.000, 0.000, 15:42:26.788
32, 34355.48, 42560.94, 35359.27, 16516.44, 18516.92, 11576.37, 19061.88, 58790.54, 0.000, 0.000, 0.000, 15:42:26.789
33, 34295.93, 42504.77, 35278.50, 16427.82, 18430.62, 11468.66, 18976.47, 58734.57, 0.000, 0.000, 0.000, 15:42:26.789
34, 34068.37, 42273.27, 35033.88, 16191.36, 18189.33, 11247.75, 18741.45, 58521.94, 0.000, 0.000, 0.000, 15:42:26.789
35, 33880.41, 42085.90, 34856.47, 16033.89, 18025.90, 11103.25, 18562.10, 58345.09, 0.000, 0.000, 0.000, 15:42:26.789
36, 33625.32, 41835.63, 34594.71, 15787.08, 17786.38, 10868.27, 18322.75, 58144.26, 0.000, 0.000, 0.000, 15:42:26.789
37, 33150.41, 41358.50, 34096.38, 15286.40, 17309.26, 10362.63, 17865.88, 57737.46, 0.156, 0.670, 0.732, 15:42:26.789
38, 32544.54, 40753.91, 33468.63, 14660.78, 16686.61, 9722.20, 17221.26, 57156.07, 0.000, 0.000, 0.000, 15:42:26.790
39, 31900.56, 40111.01, 32845.39, 14047.53, 16076.87, 9137.86, 16623.13, 56564.13, 0.000, 0.000, 0.000, 15:42:26.790
40, 31276.15, 39496.80, 32240.15, 13440.06, 15490.34, 8537.94, 16052.55, 55987.09, 0.000, 0.000, 0.000, 15:42:26.790
41, 30581.34, 38813.00, 31531.22, 12731.87, 14799.07, 7834.76, 15345.72, 55313.99, 0.000, 0.000, 0.000, 15:42:26.790
42, 29505.31, 37747.27, 30433.33, 11635.51, 13706.13, 6746.52, 14249.86, 54291.09, 0.000, 0.000, 0.000, 15:42:26.791
43, 28564.14, 36822.69, 29519.61, 10726.92, 12795.70, 5829.09, 13349.67, 53315.43, 0.000, 0.000, 0.000, 15:42:26.791
44, 28064.31, 36343.55, 29058.85, 10262.76, 12335.73, 5359.26, 12890.85, 52798.02, 0.000, 0.000, 0.000, 15:42:26.791
45, 27721.21, 36019.01, 28719.69, 9927.71, 12011.36, 5030.26, 12559.11, 52463.92, 0.000, 0.000, 0.000, 15:42:26.791
46, 27564.82, 35881.88, 28551.40, 9771.11, 11854.67, 4885.11, 12406.98, 52317.36, 0.000, 0.000, 0.000, 15:42:26.791
47, 27715.29, 36047.53, 28707.13, 9948.00, 12033.87, 5074.00, 12585.13, 52444.43, 0.166, 0.630, 0.748, 15:42:26.791
48, 27769.72, 36116.86, 28764.53, 10027.17, 12108.10, 5154.45, 12662.13, 52531.58, 0.000, 0.000, 0.000, 15:42:26.792
49, 27291.55, 35652.71, 28264.32, 9539.39, 11631.27, 4671.47, 12177.43, 52133.16, 0.000, 0.000, 0.000, 15:42:26.792
50, 26585.25, 34956.68, 27529.99, 8813.63, 10913.26, 3946.65, 11457.08, 51465.76, 0.000, 0.000, 0.000, 15:42:26.792
51, 26045.68, 34424.28, 26989.19, 8282.53, 10378.43, 3422.72, 10928.80, 50911.73, 0.000, 0.000, 0.000, 15:42:26.792
52, 25787.56, 34174.45, 26759.35, 8057.69, 10146.22, 3194.20, 10702.26, 50632.15, 0.000, 0.000, 0.000, 15:42:26.792
53, 25679.96, 34073.22, 26661.99, 7959.10, 10036.56, 3093.53, 10590.99, 50523.79, 0.000, 0.000, 0.000, 15:42:26.792
54, 25643.98, 34044.66, 26617.31, 7911.31, 9976.57, 3036.22, 10534.13, 50480.09, 0.000, 0.000, 0.000, 15:42:26.793
55, 25730.12, 34133.59, 26716.10, 8013.01, 10064.45, 3127.75, 10639.63, 50529.18, 0.000, 0.000, 0.000, 15:42:26.793
56, 26123.06, 34528.06, 27142.64, 8444.29, 10486.50, 3561.46, 11071.27, 50874.11, 0.000, 0.000, 0.000, 15:42:26.793
57, 26246.38, 34655.66, 27267.96, 8571.36, 10605.83, 3693.92, 11192.10, 51058.49, 0.198, 0.652, 0.756, 15:42:26.793
58, 26131.07, 34534.79, 27134.75, 8426.45, 10476.13, 3539.82, 11044.15, 50967.18, 0.000, 0.000, 0.000, 15:42:26.793
59, 26010.61, 34412.16, 27008.01, 8296.43, 10348.43, 3403.97, 10919.47, 50860.54, 0.000, 0.000, 0.000, 15:42:26.794
60, 26047.34, 34447.55, 27073.04, 8366.71, 10416.61, 3494.67, 10995.25, 50908.13, 0.000, 0.000, 0.000, 15:42:26.794
61, 26159.03, 34561.59, 27189.24, 8478.96, 10538.44, 3592.08, 11102.04, 51022.14, 0.000, 0.000, 0.000, 15:42:26.794
62, 25980.04, 34377.88, 26975.80, 8262.63, 10329.61, 3375.87, 10879.42, 50883.70, 0.000, 0.000, 0.000, 15:42:26.794
63, 25329.76, 33724.45, 26291.53, 7579.32, 9670.39, 2701.57, 10181.40, 50231.92, 0.000, 0.000, 0.000, 15:42:26.794
64, 24447.44, 32837.82, 25388.81, 6681.85, 8801.09, 1809.08, 9277.99, 49421.34, 0.000, 0.000, 0.000, 15:42:26.795
65, 22481.45, 30871.78, 23377.67, 4678.82, 6831.16, -180.24, 7322.86, 47791.00, 0.000, 0.000, 0.000, 15:42:26.797
66, 19235.20, 27620.45, 20055.95, 1356.93, 3560.16, -3484.06, 4058.58, 44796.94, 0.000, 0.000, 0.000, 15:42:26.798
67, 14518.78, 22895.70, 15245.41, -3452.05, -1210.62, -8272.89, -740.27, 40063.36, 0.180, 0.654, 0.766, 15:42:26.799
68, 8812.62, 17187.55, 9493.52, -9191.73, -6917.13, -13990.02, -6467.45, 34486.19, 0.000, 0.000, 0.000, 15:42:26.799
69, 2966.61, 11345.83, 3633.21, -15039.62, -12743.47, -19819.58, -12307.32, 28838.87, 0.000, 0.000, 0.000, 15:42:26.799
70, -2584.40, 5802.24, -1932.00, -20595.34, -18283.48, -25357.09, -17856.52, 23558.16, 0.000, 0.000, 0.000, 15:42:26.799
71, -8762.60, -369.63, -8155.19, -26817.82, -24477.86, -31563.25, -24062.01, 17471.02, 0.000, 0.000, 0.000, 15:42:26.799
72, -16618.81, -8226.07, -16062.16, -34724.73, -32360.50, -39457.46, -31952.15, 9389.83, 0.000, 0.000, 0.000, 15:42:26.799
73, -23967.06, -15565.71, -23375.34, -42029.97, -39666.72, -46754.21, -39255.29, 1373.60, 0.000, 0.000, 0.000, 15:42:26.800
74, -29601.51, -21190.46, -28978.83, -47637.80, -45270.30, -52355.14, -44851.48, -4894.50, 0.000, 0.000, 0.000, 15:42:26.800
75, -34987.72, -26575.13, -34371.59, -53041.18, -50676.07, -57761.58, -50246.41, -10455.01, 0.000, 0.000, 0.000, 15:42:26.800
76, -39653.31, -31241.30, -39017.81, -57692.02, -55333.62, -62416.33, -54889.82, -14696.52, 0.134, 0.624, 0.752, 15:42:26.800
77, -43687.69, -35275.45, -43010.84, -61682.36, -59332.35, -66409.24, -58892.73, -18308.45, 0.000, 0.000, 0.000, 15:42:26.800
78, -47190.88, -38776.52, -46491.31, -65164.36, -62819.78, -69890.04, -62376.41, -21607.59, 0.000, 0.000, 0.000, 15:42:26.840
79, -49674.63, -41262.23, -48968.25, -67645.41, -65308.15, -72369.34, -64859.48, -24081.81, 0.000, 0.000, 0.000, 15:42:26.840
80, -51393.16, -42985.84, -50674.84, -69353.62, -67008.94, -74089.52, -66580.03, -25760.14, 0.000, 0.000, 0.000, 15:42:26.840
81, -52487.19, -44086.78, -51739.17, -70413.63, -68082.90, -75155.21, -67643.17, -26712.12, 0.000, 0.000, 0.000, 15:42:26.840
82, -52726.13, -44327.46, -51952.54, -70628.98, -68304.38, -75360.22, -67843.11, -27149.43, 0.000, 0.000, 0.000, 15:42:26.840
83, -52779.22, -44381.55, -52002.00, -70685.63, -68377.29, -75419.19, -67882.98, -27531.83, 0.000, 0.000, 0.000, 15:42:26.840
84, -53060.85, -44664.98, -52269.66, -70961.04, -68673.92, -75702.88, -68144.48, -27887.69, 0.000, 0.000, 0.000, 15:42:26.840
85, -53183.23, -44792.04, -52347.49, -71038.31, -68775.22, -75792.10, -68212.29, -28146.12, 0.000, 0.000, 0.000, 15:42:26.841
86, -53143.73, -44752.71, -52288.37, -70979.17, -68731.48, -75741.12, -68149.70, -28216.84, 0.140, 0.630, 0.770, 15:42:26.841
87, -52528.43, -44140.00, -51670.77, -70367.42, -68132.92, -75131.01, -67548.96, -27735.47, 0.000, 0.000, 0.000, 15:42:26.841
88, -52020.46, -43644.71, -51188.55, -69891.27, -67658.20, -74657.91, -67083.44, -27358.96, 0.000, 0.000, 0.000, 15:42:26.841
89, -52802.24, -44450.73, -52017.34, -70712.89, -68475.22, -75480.88, -67916.71, -28374.69, 0.000, 0.000, 0.000, 15:42:26.841
90, -54364.25, -46012.50, -53593.89, -72277.34, -70031.99, -77036.76, -69494.08, -29797.38, 0.000, 0.000, 0.000, 15:42:26.841
91, -55677.72, -47325.88, -54921.21, -73598.46, -71338.59, -78348.16, -70826.48, -30784.52, 0.000, 0.000, 0.000, 15:42:26.841
92, -56504.70, -48161.35, -55769.63, -74444.92, -72170.96, -79184.20, -71677.26, -31257.46, 0.000, 0.000, 0.000, 15:42:26.841
93, -56972.63, -48627.87, -56227.62, -74893.74, -72608.97, -79625.20, -72121.09, -31854.21, 0.000, 0.000, 0.000, 15:42:26.842
94, -57376.19, -49015.88, -56616.95, -75270.63, -72968.77, -79986.56, -72494.38, -32475.79, 0.000, 0.000, 0.000, 15:42:26.842
95, -57740.57, -49366.60, -56994.69, -75637.16, -73329.50, -80337.24, -72868.95, -32821.12, 0.000, 0.000, 0.000, 15:42:26.842
96, -58133.91, -49746.69, -57416.42, -76046.16, -73719.49, -80732.02, -73271.90, -33162.10, 0.168, 0.624, 0.786, 15:42:26.842
97, -58471.98, -50062.90, -57753.08, -76355.55, -74016.23, -81011.81, -73547.88, -33463.78, 0.000, 0.000, 0.000, 15:42:26.842
98, -58712.04, -50283.06, -57986.68, -76568.27, -74180.07, -81200.11, -73742.78, -33650.10, 0.000, 0.000, 0.000, 15:42:26.842
99, -58920.05, -50474.91, -58215.38, -76792.41, -74354.91, -81414.53, -73957.31, -33856.72, 0.000, 0.000, 0.000, 15:42:26.842
100, -59204.98, -50744.36, -58532.94, -77100.48, -74640.67, -81712.56, -74256.43, -34103.55, 0.000, 0.000, 0.000, 15:42:26.842
101, -59554.59, -51081.60, -58893.85, -77444.39, -74962.65, -82041.13, -74588.71, -34475.04, 0.000, 0.000, 0.000, 15:42:26.842
102, -59787.29, -51302.37, -59119.89, -77654.70, -75162.77, -82237.61, -74781.36, -34766.53, 0.000, 0.000, 0.000, 15:42:26.843
103, -59941.21, -51441.35, -59274.41, -77803.98, -75299.27, -82382.80, -74920.45, -34952.67, 0.000, 0.000, 0.000, 15:42:26.843
104, -60069.21, -51556.46, -59416.25, -77946.19, -75441.36, -82518.05, -75060.42, -35106.83, 0.000, 0.000, 0.000, 15:42:26.843
105, -60122.23, -51598.60, -59460.27, -77994.47, -75486.87, -82570.70, -75106.71, -35138.46, 0.000, 0.000, 0.000, 15:42:26.843
106, -59780.66, -51251.97, -59073.29, -77611.27, -75110.15, -82193.35, -74730.38, -34869.66, 0.162, 0.586, 0.784, 15:42:26.843
107, -59293.90, -50758.08, -58569.77, -77114.27, -74627.24, -81706.35, -74247.22, -34433.73, 0.000, 0.000, 0.000, 15:42:26.843
108, -59374.03, -50834.77, -58659.38, -77216.00, -74727.84, -81816.08, -74350.69, -34565.63, 0.000, 0.000, 0.000, 15:42:26.876
109, -59952.99, -51411.07, -59242.07, -77808.66, -75317.28, -82411.80, -74944.46, -35057.75, 0.000, 0.000, 0.000, 15:42:26.876
110, -60339.14, -51794.18, -59598.06, -78164.25, -75690.72, -82775.66, -75302.02, -35165.98, 0.000, 0.000, 0.000, 15:42:26.876
111, -60484.58, -51934.46, -59732.53, -78302.72, -75830.55, -82918.02, -75435.19, -35440.12, 0.000, 0.000, 0.000, 15:42:26.876
112, -60645.93, -52092.46, -59901.36, -78479.52, -76002.95, -83088.94, -75607.16, -35766.05, 0.000, 0.000, 0.000, 15:42:26.876
113, -60906.85, -52353.46, -60171.43, -78754.65, -76276.22, -83365.68, -75880.23, -36065.88, 0.000, 0.000, 0.000, 15:42:26.876
114, -61294.09, -52746.79, -60542.49, -79127.23, -76648.40, -83746.20, -76259.32, -36364.39, 0.000, 0.000, 0.000, 15:42:26.876
115, -61409.61, -52857.34, -60643.95, -79227.86, -76759.04, -83848.23, -76362.72, -36384.46, 0.000, 0.000, 0.000, 15:42:26.876
116, -61434.77, -52878.48, -60680.20, -79270.73, -76805.45, -83877.76, -76394.48, -36458.98, 0.166, 0.610, 0.770, 15:42:26.877
117, -61600.73, -53042.18, -60857.09, -79464.27, -76980.79, -84071.52, -76587.16, -36612.74, 0.000, 0.000, 0.000, 15:42:26.877
118, -61828.48, -53269.03, -61070.93, -79679.07, -77183.50, -84287.98, -76811.07, -36870.00, 0.000, 0.000, 0.000, 15:42:26.877
119, -61961.94, -53397.96, -61182.85, -79795.75, -77282.25, -84408.14, -76927.46, -37044.37, 0.000, 0.000, 0.000, 15:42:26.877
120, -62107.61, -53537.10, -61325.27, -79950.00, -77434.17, -84563.59, -77078.29, -37229.09, 0.000, 0.000, 0.000, 15:42:26.877
121, -62348.82, -53776.80, -61575.37, -80205.41, -77694.05, -84817.42, -77332.20, -37461.54, 0.000, 0.000, 0.000, 15:42:26.877
122, -62565.23, -53994.32, -61779.75, -80406.30, -77906.91, -85033.12, -77543.70, -37697.82, 0.000, 0.000, 0.000, 15:42:26.877
123, -62615.77, -54044.64, -61808.98, -80429.60, -77941.34, -85057.28, -77579.46, -37764.75, 0.000, 0.000, 0.000, 15:42:26.878
124, -62653.70, -54081.43, -61859.21, -80479.42, -78015.52, -85110.01, -77629.41, -37787.97, 0.000, 0.000, 0.000, 15:42:26.878
125, -62869.40, -54297.79, -62092.92, -80723.01, -78241.02, -85354.88, -77868.16, -37957.42, 0.000, 0.000, 0.000, 15:42:26.878
126, -63423.61, -54851.80, -62648.56, -81285.96, -78782.79, -85914.23, -78431.58, -38476.20, 0.172, 0.628, 0.766, 15:42:26.878
127, -64191.10, -55617.87, -63402.06, -82035.41, -79547.69, -86658.80, -79187.35, -39281.71, 0.000, 0.000, 0.000, 15:42:26.878
128, -64712.05, -56135.84, -63917.74, -82548.66, -80068.35, -87172.76, -79709.72, -39884.34, 0.000, 0.000, 0.000, 15:42:26.878
129, -64996.84, -56418.59, -64220.38, -82854.54, -80371.22, -87483.32, -80022.55, -40198.96, 0.000, 0.000, 0.000, 15:42:26.878
130, -65368.95, -56789.77, -64599.58, -83231.12, -80751.27, -87853.35, -80389.90, -40615.46, 0.000, 0.000, 0.000, 15:42:26.878
131, -65777.98, -57197.20, -64990.85, -83616.84, -81130.55, -88229.02, -80769.59, -41313.64, 0.000, 0.000, 0.000, 15:42:26.878
132, -66292.84, -57704.40, -65511.02, -84135.74, -81640.88, -88740.60, -81289.16, -41914.14, 0.000, 0.000, 0.000, 15:42:26.879
133, -66900.06, -58307.34, -66133.16, -84762.04, -82265.70, -89364.71, -81914.94, -42286.39, 0.000, 0.000, 0.000, 15:42:26.879
134, -67659.60, -59062.45, -66904.80, -85537.30, -83037.78, -90143.45, -82697.30, -42928.25, 0.000, 0.000, 0.000, 15:42:26.879
135, -68616.77, -60018.77, -67853.19, -86480.39, -83981.47, -91087.63, -83638.44, -43850.75, 0.000, 0.000, 0.000, 15:42:26.879
136, -69979.42, -61376.79, -69219.41, -87842.02, -85362.47, -92445.11, -84989.29, -45152.38, 0.186, 0.614, 0.758, 15:42:26.879
137, -71439.28, -62834.84, -70677.13, -89315.24, -86818.89, -93915.61, -86464.81, -46541.63, 0.000, 0.000, 0.000, 15:42:26.942
138, -73258.64, -64652.80, -72507.83, -91163.45, -88623.30, -95775.86, -88317.88, -48187.95, 0.000, 0.000, 0.000, 15:42:26.942
139, -75538.97, -66935.74, -74786.45, -93441.55, -90911.07, -98040.36, -90588.42, -50305.30, 0.000, 0.000, 0.000, 15:42:26.942
140, -77857.00, -69251.05, -77096.10, -95761.24, -93226.91, -100364.85, -92900.69, -52571.17, 0.000, 0.000, 0.000, 15:42:26.942
141, -79850.02, -71243.86, -79090.08, -97773.08, -95231.73, -102384.04, -94909.88, -54607.25, 0.000, 0.000, 0.000, 15:42:26.942
142, -81380.38, -72774.13, -80584.85, -99276.86, -96744.70, -103887.20, -96408.37, -56166.04, 0.000, 0.000, 0.000, 15:42:26.942
143, -82600.06, -73988.72, -81755.80, -100447.33, -97914.34, -105055.79, -97579.78, -57407.30, 0.000, 0.000, 0.000, 15:42:26.943
144, -83629.32, -75013.59, -82762.56, -101457.49, -98936.13, -106066.55, -98589.20, -58427.52, 0.000, 0.000, 0.000, 15:42:26.943
145, -84813.52, -76196.00, -83932.90, -102630.63, -100101.14, -107231.08, -99755.52, -59562.52, 0.164, 0.656, 0.752, 15:42:26.943
146, -84820.30, -76199.15, -83895.17, -102597.39, -100058.05, -107188.14, -99724.56, -59925.67, 0.000, 0.000, 0.000, 15:42:26.943
147, -82388.66, -73761.98, -81389.09, -100094.69, -97553.31, -104683.74, -97216.65, -57975.33, 0.000, 0.000, 0.000, 15:42:26.943
148, -81348.50, -72724.51, -80367.80, -99077.77, -96516.84, -103662.63, -96185.66, -56533.64, 0.000, 0.000, 0.000, 15:42:26.943
149, -81329.44, -72707.79, -80349.96, -99065.59, -96511.72, -103646.55, -96166.61, -56402.03, 0.000, 0.000, 0.000, 15:42:26.943
150, -81221.07, -72602.64, -80241.58, -98962.88, -96417.47, -103544.20, -96055.21, -56293.27, 0.000, 0.000, 0.000, 15:42:26.943
151, -81207.82, -72593.44, -80225.62, -98949.91, -96389.15, -103536.05, -96044.48, -56264.08, 0.000, 0.000, 0.000, 15:42:26.943
152, -81184.23, -72570.16, -80156.64, -98890.13, -96296.05, -103472.19, -95989.77, -56240.07, 0.000, 0.000, 0.000, 15:42:26.944
153, -81027.69, -72408.67, -79984.48, -98725.33, -96132.41, -103305.18, -95819.84, -56087.54, 0.000, 0.000, 0.000, 15:42:26.944
154, -80565.98, -71941.12, -79525.73, -98265.93, -95684.53, -102836.70, -95361.14, -55687.89, 0.000, 0.000, 0.000, 15:42:26.944
155, -79706.02, -71081.49, -78647.88, -97385.77, -94799.58, -101957.95, -94478.70, -54923.60, 0.148, 0.666, 0.742, 15:42:26.944
156, -78407.52, -69783.98, -77313.59, -96044.13, -93466.97, -100608.38, -93138.29, -53708.16, 0.000, 0.000, 0.000, 15:42:26.944
157, -77240.72, -68612.01, -76137.13, -94864.60, -92284.72, -99413.05, -91949.48, -52444.12, 0.000, 0.000, 0.000, 15:42:26.944
158, -76446.14, -67818.72, -75350.05, -94081.82, -91496.41, -98624.59, -91146.25, -51571.60, 0.000, 0.000, 0.000, 15:42:26.944
159, -75843.73, -67216.43, -74755.01, -93492.41, -90881.72, -98032.42, -90578.09, -50947.56, 0.000, 0.000, 0.000, 15:42:26.944
160, -75360.05, -66738.41, -74260.34, -92996.27, -90386.12, -97534.45, -90088.05, -50481.23, 0.000, 0.000, 0.000, 15:42:26.945
161, -74894.30, -66267.80, -73787.89, -92522.52, -89913.89, -97056.50, -89585.90, -49994.93, 0.000, 0.000, 0.000, 15:42:26.945
162, -74576.26, -65944.39, -73474.14, -92208.12, -89591.09, -96731.66, -89257.87, -49601.78, 0.000, 0.000, 0.000, 15:42:26.945
163, -74374.73, -65736.59, -73287.48, -92022.04, -89400.85, -96542.12, -89075.37, -49376.19, 0.000, 0.000, 0.000, 15:42:26.945
164, -74147.22, -65498.70, -73048.54, -91774.83, -89163.30, -96289.88, -88827.23, -49152.85, 0.000, 0.000, 0.000, 15:42:26.945
165, -73977.12, -65314.63, -72872.52, -91591.37, -88992.02, -96107.38, -88639.02, -48954.39, 0.158, 0.634, 0.744, 15:42:26.945
166, -73860.31, -65199.57, -72759.93, -91489.51, -88884.70, -96007.53, -88539.33, -48818.36, 0.000, 0.000, 0.000, 15:42:26.945
167, -73845.78, -65183.99, -72742.48, -91491.99, -88828.35, -96013.16, -88545.80, -48773.14, 0.000, 0.000, 0.000, 15:42:26.945
168, -73821.04, -65161.08, -72720.44, -91460.56, -88820.06, -95967.57, -88520.21, -48765.94, 0.000, 0.000, 0.000, 15:42:26.958
169, -73757.13, -65095.59, -72662.63, -91400.51, -88766.06, -95923.49, -88454.52, -48722.84, 0.000, 0.000, 0.000, 15:42:26.958
170, -73701.81, -65039.46, -72625.17, -91365.32, -88733.94, -95882.52, -88419.72, -48674.10, 0.000, 0.000, 0.000, 15:42:26.958
171, -73802.46, -65140.02, -72759.48, -91498.13, -88877.80, -96014.98, -88558.30, -48751.05, 0.000, 0.000, 0.000, 15:42:27.412
172, -74069.19, -65406.03, -73037.38, -91765.40, -89171.99, -96291.47, -88824.94, -49017.98, 0.000, 0.000, 0.000, 15:42:27.415
173, -74323.21, -65656.73, -73278.45, -92002.62, -89401.25, -96524.13, -89073.91, -49275.38, 0.000, 0.000, 0.000, 15:42:27.415
174, -74625.12, -65956.80, -73594.39, -92325.73, -89719.83, -96851.83, -89416.95, -49574.65, 0.000, 0.000, 0.000, 15:42:27.415
175, -75175.59, -66509.65, -74176.67, -92918.57, -90304.48, -97454.72, -90013.96, -50092.20, 0.178, 0.654, 0.732, 15:42:27.419
176, -76114.15, -67451.41, -75134.42, -93877.03, -91264.94, -98408.67, -90960.47, -50957.53, 0.000, 0.000, 0.000, 15:42:27.419
177, -77239.06, -68583.17, -76259.26, -94997.30, -92407.41, -99530.30, -92075.37, -52039.20, 0.000, 0.000, 0.000, 15:42:27.419
178, -78626.55, -69971.40, -77661.02, -96402.71, -93783.65, -100945.66, -93476.53, -53357.34, 0.000, 0.000, 0.000, 15:42:27.419
179, -80200.91, -71547.91, -79262.21, -98010.02, -95367.45, -102552.73, -95096.77, -54920.83, 0.000, 0.000, 0.000, 15:42:27.419
180, -81993.62, -73347.76, -81076.14, -99831.09, -97178.61, -104379.00, -96912.58, -56661.25, 0.000, 0.000, 0.000, 15:42:27.420
181, -84019.22, -75376.16, -83104.16, -101851.77, -99201.53, -106389.49, -98927.74, -58643.69, 0.000, 0.000, 0.000, 15:42:27.420
182, -86390.54, -77745.55, -85495.69, -104245.20, -101583.34, -108782.63, -101318.29, -60892.05, 0.000, 0.000, 0.000, 15:42:27.420
183, -89980.95, -81338.38, -89154.98, -107916.41, -105246.13, -112449.68, -104987.59, -64127.64, 0.000, 0.000, 0.000, 15:42:27.420
184, -94096.52, -85460.73, -93301.09, -112066.79, -109389.86, -116601.78, -109140.46, -68278.23, 0.000, 0.000, 0.000, 15:42:27.420
185, -96282.44, -87647.80, -95432.80, -114192.51, -111504.73, -118720.52, -111259.13, -70903.87, 0.166, 0.672, 0.726, 15:42:27.420
186, -97963.34, -89324.66, -97111.80, -115868.98, -113178.59, -120380.88, -112938.84, -72585.70, 0.000, 0.000, 0.000, 15:42:27.420
187, -100150.05, -91515.75, -99331.75, -118100.58, -115415.84, -122627.95, -115172.32, -74680.39, 0.000, 0.000, 0.000, 15:42:27.420
188, -102474.41, -93844.06, -101676.88, -120449.66, -117785.40, -124969.70, -117525.87, -76976.27, 0.000, 0.000, 0.000, 15:42:27.421
189, -104810.37, -96183.66, -104001.39, -122778.35, -120104.28, -127304.31, -119844.10, -79294.20, 0.000, 0.000, 0.000, 15:42:27.421
190, -106910.71, -98284.84, -106077.04, -124860.02, -122172.75, -129370.59, -121940.88, -81480.17, 0.000, 0.000, 0.000, 15:42:27.421
191, -108014.55, -99388.10, -107169.37, -125954.16, -123292.71, -130460.84, -123033.74, -82802.84, 0.000, 0.000, 0.000, 15:42:27.421
192, -108256.94, -99629.74, -107408.45, -126195.62, -123545.38, -130703.38, -123278.49, -83279.98, 0.000, 0.000, 0.000, 15:42:27.421
193, -107890.30, -99260.36, -107015.81, -125799.75, -123161.21, -130308.95, -122884.70, -83096.16, 0.000, 0.000, 0.000, 15:42:27.421
194, -107584.06, -98952.09, -106690.51, -125476.19, -122833.18, -129992.91, -122567.48, -82789.27, 0.000, 0.000, 0.000, 15:42:27.421
195, -107645.33, -99019.07, -106773.88, -125559.67, -122921.11, -130068.33, -122657.79, -82807.48, 0.176, 0.708, 0.716, 15:42:27.421
196, -108055.46, -99439.06, -107220.94, -126010.99, -123369.13, -130520.82, -123106.85, -83158.66, 0.000, 0.000, 0.000, 15:42:27.421
197, -108634.86, -100030.96, -107814.69, -126604.79, -123965.54, -131114.25, -123693.27, -83731.22, 0.000, 0.000, 0.000, 15:42:27.422
198, -109095.66, -100500.95, -108270.10, -127053.37, -124412.91, -131556.78, -124146.03, -84241.27, 0.000, 0.000, 0.000, 15:42:27.422
199, -109588.77, -101000.35, -108783.19, -127576.65, -124929.51, -132073.75, -124667.68, -84732.29, 0.000, 0.000, 0.000, 15:42:27.422
200, -110292.94, -101710.58, -109524.70, -128322.34, -125667.11, -132812.72, -125411.19, -85379.10, 0.000, 0.000, 0.000, 15:42:27.422
201, -110938.01, -102364.75, -110190.07, -128991.64, -126320.92, -133495.25, -126079.30, -86060.23, 0.000, 0.000, 0.000, 15:42:27.422
202, -111336.85, -102766.84, -110582.15, -129379.24, -126714.18, -133873.47, -126476.31, -86542.02, 0.000, 0.000, 0.000, 15:42:27.437
203, -111679.99, -103107.66, -110936.06, -129720.47, -127062.20, -134189.30, -126821.71, -86872.06, 0.000, 0.000, 0.000, 15:42:27.437
204, -112030.98, -103461.82, -111316.34, -130104.96, -127433.35, -134574.44, -127201.20, -87219.21, 0.000, 0.000, 0.000, 15:42:27.437
205, -112541.61, -103972.17, -111847.25, -130637.76, -127957.70, -135105.03, -127727.74, -87725.61, 0.190, 0.704, 0.696, 15:42:27.437
206, -112890.09, -104318.67, -112178.84, -130968.52, -128257.75, -135444.58, -128058.26, -88152.10, 0.000, 0.000, 0.000, 15:42:27.438
207, -113028.86, -104453.77, -112313.53, -131101.34, -128394.61, -135570.97, -128187.38, -88324.57, 0.000, 0.000, 0.000, 15:42:27.439
208, -113316.88, -104742.35, -112616.96, -131409.05, -128708.58, -135869.39, -128501.80, -88581.50, 0.000, 0.000, 0.000, 15:42:27.439
209, -113728.63, -105152.34, -113046.52, -131835.41, -129140.04, -136296.13, -128912.07, -88980.91, 0.000, 0.000, 0.000, 15:42:27.439
210, -113968.97, -105392.05, -113262.92, -132050.77, -129347.28, -136517.92, -129131.14, -89272.73, 0.000, 0.000, 0.000, 15:42:27.439
211, -114156.37, -105574.51, -113432.95, -132234.53, -129513.31, -136706.55, -129317.29, -89463.79, 0.000, 0.000, 0.000, 15:42:27.439
212, -114605.75, -106021.79, -113895.34, -132699.67, -129972.98, -137167.94, -129776.50, -89851.20, 0.000, 0.000, 0.000, 15:42:27.439
213, -115208.80, -106626.27, -114509.77, -133320.73, -130601.75, -137789.48, -130398.51, -90436.97, 0.000, 0.000, 0.000, 15:42:27.439
214, -115612.98, -107032.20, -114900.62, -133709.72, -131003.84, -138178.75, -130789.48, -90892.52, 0.186, 0.718, 0.692, 15:42:27.440
215, -115879.28, -107295.32, -115152.43, -133962.47, -131267.67, -138435.91, -131040.65, -91178.22, 0.000, 0.000, 0.000, 15:42:27.440
216, -116087.34, -107501.02, -115364.19, -134187.03, -131468.06, -138663.67, -131269.69, -91391.79, 0.000, 0.000, 0.000, 15:42:27.440
217, -116467.49, -107886.03, -115770.97, -134600.39, -131866.97, -139063.98, -131681.14, -91745.21, 0.000, 0.000, 0.000, 15:42:27.440
218, -117181.07, -108604.22, -116482.89, -135319.61, -132580.80, -139776.83, -132391.20, -92451.08, 0.000, 0.000, 0.000, 15:42:27.440
219, -117950.95, -109375.46, -117238.63, -136083.92, -133342.50, -140537.89, -133149.25, -93229.62, 0.000, 0.000, 0.000, 15:42:27.440
220, -118817.60, -110245.04, -118120.13, -136978.42, -134235.20, -141433.31, -134035.45, -94060.74, 0.000, 0.000, 0.000, 15:42:27.440
221, -119689.61, -111123.75, -119011.34, -137880.84, -135132.83, -142327.52, -134939.52, -94927.01, 0.000, 0.000, 0.000, 15:42:27.440
