%OpenBCI Raw EEG Data
%
%Sample Rate = 250.0 Hz
%First Column = SampleIndex
%Last Column = Timestamp 
%Other Columns = EEG data in microvolts followed by Accel Data (in G) interleaved with Aux Data
0, -187500.02, -187500.02, -187500.02, -187500.02, -187500.02, -187500.02, -187500.02, 184153.95, -0.084, 0.406, 0.306, 11:01:45.066
1, -187500.02, -187500.02, -187500.02, -187500.02, -187500.02, -187500.02, -187500.02, 184147.05, 0.000, 0.000, 0.000, 11:01:45.067
2, -187500.02, -187500.02, -187500.02, -187500.02, -187500.02, -187500.02, -187500.02, 184140.03, 0.000, 0.000, 0.000, 11:01:45.069
3, -187500.02, -187500.02, -187500.02, -187500.02, -187500.02, -187500.02, -187500.02, 184133.75, 0.000, 0.000, 0.000, 11:01:45.070
4, -187500.02, -187500.02, -187500.02, -187500.02, -187500.02, -187500.02, -187500.02, 184127.77, 0.000, 0.000, 0.000, 11:01:45.071
5, -187500.02, -187500.02, -187500.02, -187500.02, -187500.02, -187500.02, -187500.02, 184119.69, 0.000, 0.000, 0.000, 11:01:45.072
6, -187500.02, -187500.02, -187500.02, -187500.02, -187500.02, -187500.02, -187500.02, 184104.78, 0.000, 0.000, 0.000, 11:01:45.073
7, -187500.02, -187500.02, -187500.02, -187500.02, -187500.02, -187500.02, -187500.02, 184095.73, -0.122, 0.602, 0.452, 11:01:45.074
8, -187500.02, -187500.02, -187500.02, -187500.02, -187500.02, -187500.02, -187500.02, 184089.36, 0.000, 0.000, 0.000, 11:01:45.075
9, -187500.02, -187500.02, -187500.02, -187500.02, -187500.02, -187500.02, -187500.02, 184078.95, 0.000, 0.000, 0.000, 11:01:45.076
10, -187500.02, -187500.02, -187500.02, -187500.02, -187500.02, -187500.02, -187500.02, 184066.67, 0.000, 0.000, 0.000, 11:01:45.076
11, -187500.02, -187500.02, -187500.02, -187500.02, -187500.02, -187500.02, -187500.02, 184056.73, 0.000, 0.000, 0.000, 11:01:45.077
12, -187500.02, -187500.02, -187500.02, -187500.02, -187500.02, -187500.02, -187500.02, 184050.31, 0.000, 0.000, 0.000, 11:01:45.078
13, -187500.02, -187500.02, -187500.02, -187500.02, -187500.02, -187500.02, -187500.02, 184046.00, 0.000, 0.000, 0.000, 11:01:45.078
14, -187500.02, -187500.02, -187500.02, -187500.02, -187500.02, -187500.02, -187500.02, 184040.19, 0.000, 0.000, 0.000, 11:01:45.079
15, -187500.02, -187500.02, -187500.02, -187500.02, -187500.02, -187500.02, -187500.02, 184036.28, 0.000, 0.000, 0.000, 11:01:45.080
16, -187500.02, -187500.02, -187500.02, -187500.02, -187500.02, -187500.02, -187500.02, 184034.67, -0.148, 0.698, 0.530, 11:01:45.080
17, -187500.02, -187500.02, -187500.02, -187500.02, -187500.02, -187500.02, -187500.02, 184030.48, 0.000, 0.000, 0.000, 11:01:45.081
18, -187500.02, -187500.02, -187500.02, -187500.02, -187500.02, -187500.02, -187500.02, 184026.17, 0.000, 0.000, 0.000, 11:01:45.082
19, -187500.02, -187500.02, -187500.02, -187500.02, -187500.02, -187500.02, -187500.02, 184023.56, 0.000, 0.000, 0.000, 11:01:45.082
20, -187500.02, -187500.02, -187500.02, -187500.02, -187500.02, -187500.02, -187500.02, 184023.02, 0.000, 0.000, 0.000, 11:01:45.083
21, -187500.02, -187500.02, -187500.02, -187500.02, -187500.02, -187500.02, -187500.02, 184018.08, 0.000, 0.000, 0.000, 11:01:45.083
22, -187500.02, -187500.02, -187500.02, -187500.02, -187500.02, -187500.02, -187500.02, 184008.86, 0.000, 0.000, 0.000, 11:01:45.084
23, -187500.02, -187500.02, -187500.02, -187500.02, -187500.02, -187500.02, -187500.02, 183999.31, 0.000, 0.000, 0.000, 11:01:45.084
24, -187500.02, -187500.02, -187500.02, -187500.02, -187500.02, -187500.02, -187500.02, 183991.19, 0.000, 0.000, 0.000, 11:01:45.085
25, -187500.02, -187500.02, -187500.02, -187500.02, -187500.02, -187500.02, -187500.02, 183984.09, 0.000, 0.000, 0.000, 11:01:45.085
26, -187500.02, -187500.02, -187500.02, -187500.02, -187500.02, -187500.02, -187500.02, 183974.45, -0.168, 0.748, 0.566, 11:01:45.086
27, -187500.02, -187500.02, -187500.02, -187500.02, -187500.02, -187500.02, -187500.02, 183964.58, 0.000, 0.000, 0.000, 11:01:45.087
28, -187500.02, -187500.02, -187500.02, -187500.02, -187500.02, -187500.02, -187500.02, 183956.84, 0.000, 0.000, 0.000, 11:01:45.087
29, -187500.02, -187500.02, -187500.02, -187500.02, -187500.02, -187500.02, -187500.02, 183947.27, 0.000, 0.000, 0.000, 11:01:45.088
30, -187500.02, -187500.02, -187500.02, -187500.02, -187500.02, -187500.02, -187500.02, 183935.72, 0.000, 0.000, 0.000, 11:01:45.111
31, -187500.02, -187500.02, -187500.02, -187500.02, -187500.02, -187500.02, -187500.02, 183924.75, 0.000, 0.000, 0.000, 11:01:45.111
32, -187500.02, -187500.02, -187500.02, -187500.02, -187500.02, -187500.02, -187500.02, 183913.86, 0.000, 0.000, 0.000, 11:01:45.112
33, -187500.02, -187500.02, -187500.02, -187500.02, -187500.02, -187500.02, -187500.02, 183903.44, 0.000, 0.000, 0.000, 11:01:45.112
34, -187500.02, -187500.02, -187500.02, -187500.02, -187500.02, -187500.02, -187500.02, 183893.05, 0.000, 0.000, 0.000, 11:01:45.112
35, -187500.02, -187500.02, -187500.02, -187500.02, -187500.02, -187500.02, -187500.02, 183880.28, 0.000, 0.000, 0.000, 11:01:45.113
36, -187500.02, -187500.02, -187500.02, -187500.02, -187500.02, -187500.02, -187500.02, 183868.34, -0.164, 0.774, 0.590, 11:01:45.113
37, -187500.02, -187500.02, -187500.02, -187500.02, -187500.02, -187500.02, -187500.02, 183860.55, 0.000, 0.000, 0.000, 11:01:45.113
38, -187500.02, -187500.02, -187500.02, -187500.02, -187500.02, -187500.02, -187500.02, 183852.05, 0.000, 0.000, 0.000, 11:01:45.113
39, -187500.02, -187500.02, -187500.02, -187500.02, -187500.02, -187500.02, -187500.02, 183842.83, 0.000, 0.000, 0.000, 11:01:45.114
40, -187500.02, -187500.02, -187500.02, -187500.02, -187500.02, -187500.02, -187500.02, 183837.95, 0.000, 0.000, 0.000, 11:01:45.114
41, -187500.02, -187500.02, -187500.02, -187500.02, -187500.02, -187500.02, -187500.02, 183835.25, 0.000, 0.000, 0.000, 11:01:45.114
42, -187500.02, -187500.02, -187500.02, -187500.02, -187500.02, -187500.02, -187500.02, 183830.58, 0.000, 0.000, 0.000, 11:01:45.114
43, -187500.02, -187500.02, -187500.02, -187500.02, -187500.02, -187500.02, -187500.02, 183824.70, 0.000, 0.000, 0.000, 11:01:45.115
44, -187500.02, -187500.02, -187500.02, -187500.02, -187500.02, -187500.02, -187500.02, 183818.27, 0.000, 0.000, 0.000, 11:01:45.116
45, -187500.02, -187500.02, -187500.02, -187500.02, -187500.02, -187500.02, -187500.02, 183812.67, 0.000, 0.000, 0.000, 11:01:45.117
46, -187500.02, -187500.02, -187500.02, -187500.02, -187500.02, -187500.02, -187500.02, 183804.31, -0.148, 0.792, 0.598, 11:01:45.118
47, -187500.02, -187500.02, -187500.02, -187500.02, -187500.02, -187500.02, -187500.02, 183801.42, 0.000, 0.000, 0.000, 11:01:45.119
48, -187500.02, -187500.02, -187500.02, -187500.02, -187500.02, -187500.02, -187500.02, 183794.72, 0.000, 0.000, 0.000, 11:01:45.119
49, -187500.02, -187500.02, -187500.02, -187500.02, -187500.02, -187500.02, -187500.02, 183787.25, 0.000, 0.000, 0.000, 11:01:45.119
50, -187500.02, -187500.02, -187500.02, -187500.02, -187500.02, -187500.02, -187500.02, 183777.73, 0.000, 0.000, 0.000, 11:01:45.119
51, -187500.02, -187500.02, -187500.02, -187500.02, -187500.02, -187500.02, -187500.02, 183766.11, 0.000, 0.000, 0.000, 11:01:45.120
52, -187500.02, -187500.02, -187500.02, -187500.02, -187500.02, -187500.02, -187500.02, 183753.59, 0.000, 0.000, 0.000, 11:01:45.120
53, -187500.02, -187500.02, -187500.02, -187500.02, -187500.02, -187500.02, -187500.02, 183745.86, 0.000, 0.000, 0.000, 11:01:45.121
54, -187500.02, -187500.02, -187500.02, -187500.02, -187500.02, -187500.02, -187500.02, 183740.61, 0.000, 0.000, 0.000, 11:01:45.121
55, -187500.02, -187500.02, -187500.02, -187500.02, -187500.02, -187500.02, -187500.02, 183731.91, 0.000, 0.000, 0.000, 11:01:45.121
56, -187500.02, -187500.02, -187500.02, -187500.02, -187500.02, -187500.02, -187500.02, 183721.59, -0.152, 0.796, 0.606, 11:01:45.122
57, -187500.02, -187500.02, -187500.02, -187500.02, -187500.02, -187500.02, -187500.02, 183712.41, 0.000, 0.000, 0.000, 11:01:45.122
58, -187500.02, -187500.02, -187500.02, -187500.02, -187500.02, -187500.02, -187500.02, 183708.25, 0.000, 0.000, 0.000, 11:01:45.122
59, -187500.02, -187500.02, -187500.02, -187500.02, -187500.02, -187500.02, -187500.02, 183702.13, 0.000, 0.000, 0.000, 11:01:45.122
60, -187500.02, -187500.02, -187500.02, -187500.02, -187500.02, -187500.02, -187500.02, 183694.92, 0.000, 0.000, 0.000, 11:01:45.123
61, -187500.02, -187500.02, -187500.02, -187500.02, -187500.02, -187500.02, -187500.02, 183686.00, 0.000, 0.000, 0.000, 11:01:45.123
62, -187500.02, -187500.02, -187500.02, -187500.02, -187500.02, -187500.02, -187500.02, 183678.50, 0.000, 0.000, 0.000, 11:01:45.130
63, -187500.02, -187500.02, -187500.02, -187500.02, -187500.02, -187500.02, -187500.02, 183671.77, 0.000, 0.000, 0.000, 11:01:45.131
64, -187500.02, -187500.02, -187500.02, -187500.02, -187500.02, -187500.02, -187500.02, 183661.39, 0.000, 0.000, 0.000, 11:01:45.131
65, -187500.02, -187500.02, -187500.02, -187500.02, -187500.02, -187500.02, -187500.02, 183651.58, 0.000, 0.000, 0.000, 11:01:45.131
66, -187500.02, -187500.02, -187500.02, -187500.02, -187500.02, -187500.02, -187500.02, 183645.13, -0.154, 0.796, 0.606, 11:01:45.131
67, -187500.02, -187500.02, -187500.02, -187500.02, -187500.02, -187500.02, -187500.02, 183637.88, 0.000, 0.000, 0.000, 11:01:45.132
68, -187500.02, -187500.02, -187500.02, -187500.02, -187500.02, -187500.02, -187500.02, 183629.13, 0.000, 0.000, 0.000, 11:01:45.132
69, -187500.02, -187500.02, -187500.02, -187500.02, -187500.02, -187500.02, -187500.02, 183616.38, 0.000, 0.000, 0.000, 11:01:45.132
70, -187500.02, -187500.02, -187500.02, -187500.02, -187500.02, -187500.02, -187500.02, 183606.78, 0.000, 0.000, 0.000, 11:01:45.133
71, -187500.02, -187500.02, -187500.02, -187500.02, -187500.02, -187500.02, -187500.02, 183598.52, 0.000, 0.000, 0.000, 11:01:45.133
72, -187500.02, -187500.02, -187500.02, -187500.02, -187500.02, -187500.02, -187500.02, 183588.03, 0.000, 0.000, 0.000, 11:01:45.134
73, -187500.02, -187500.02, -187500.02, -187500.02, -187500.02, -187500.02, -187500.02, 183577.42, 0.000, 0.000, 0.000, 11:01:45.134
74, -187500.02, -187500.02, -187500.02, -187500.02, -187500.02, -187500.02, -187500.02, 183569.50, 0.000, 0.000, 0.000, 11:01:45.135
75, -187500.02, -187500.02, -187500.02, -187500.02, -187500.02, -187500.02, -187500.02, 183560.14, 0.000, 0.000, 0.000, 11:01:45.135
76, -187500.02, -187500.02, -187500.02, -187500.02, -187500.02, -187500.02, -187500.02, 183547.84, -0.148, 0.796, 0.616, 11:01:45.135
77, -187500.02, -187500.02, -187500.02, -187500.02, -187500.02, -187500.02, -187500.02, 183536.34, 0.000, 0.000, 0.000, 11:01:45.135
78, -187500.02, -187500.02, -187500.02, -187500.02, -187500.02, -187500.02, -187500.02, 183527.19, 0.000, 0.000, 0.000, 11:01:45.136
79, -187500.02, -187500.02, -187500.02, -187500.02, -187500.02, -187500.02, -187500.02, 183515.55, 0.000, 0.000, 0.000, 11:01:45.136
80, -187500.02, -187500.02, -187500.02, -187500.02, -187500.02, -187500.02, -187500.02, 183503.56, 0.000, 0.000, 0.000, 11:01:45.136
81, -187500.02, -187500.02, -187500.02, -187500.02, -187500.02, -187500.02, -187500.02, 183494.89, 0.000, 0.000, 0.000, 11:01:45.137
82, -187500.02, -187500.02, -187500.02, -187500.02, -187500.02, -187500.02, -187500.02, 183488.39, 0.000, 0.000, 0.000, 11:01:45.138
83, -187500.02, -187500.02, -187500.02, -187500.02, -187500.02, -187500.02, -187500.02, 183481.63, 0.000, 0.000, 0.000, 11:01:45.138
84, -187500.02, -187500.02, -187500.02, -187500.02, -187500.02, -187500.02, -187500.02, 183473.02, 0.000, 0.000, 0.000, 11:01:45.138
85, -187500.02, -187500.02, -187500.02, -187500.02, -187500.02, -187500.02, -187500.02, 183461.75, -0.160, 0.800, 0.612, 11:01:45.139
86, -187500.02, -187500.02, -187500.02, -187500.02, -187500.02, -187500.02, -187500.02, 183454.03, 0.000, 0.000, 0.000, 11:01:45.139
87, -187500.02, -187500.02, -187500.02, -187500.02, -187500.02, -187500.02, -187500.02, 183447.47, 0.000, 0.000, 0.000, 11:01:45.140
88, -187500.02, -187500.02, -187500.02, -187500.02, -187500.02, -187500.02, -187500.02, 183435.27, 0.000, 0.000, 0.000, 11:01:45.140
89, -187500.02, -187500.02, -187500.02, -187500.02, -187500.02, -187500.02, -187500.02, 183423.69, 0.000, 0.000, 0.000, 11:01:45.140
90, -187500.02, -187500.02, -187500.02, -187500.02, -187500.02, -187500.02, -187500.02, 183410.83, 0.000, 0.000, 0.000, 11:01:45.140
91, -187500.02, -187500.02, -187500.02, -187500.02, -187500.02, -187500.02, -187500.02, 183400.38, 0.000, 0.000, 0.000, 11:01:45.141
92, -187500.02, -187500.02, -187500.02, -187500.02, -187500.02, -187500.02, -187500.02, 183390.63, 0.000, 0.000, 0.000, 11:01:45.141
93, -187500.02, -187500.02, -187500.02, -187500.02, -187500.02, -187500.02, -187500.02, 183381.02, 0.000, 0.000, 0.000, 11:01:45.141
94, -187500.02, -187500.02, -187500.02, -187500.02, -187500.02, -187500.02, -187500.02, 183373.61, 0.000, 0.000, 0.000, 11:01:45.141
95, -187500.02, -187500.02, -187500.02, -187500.02, -187500.02, -187500.02, -187500.02, 183364.50, -0.162, 0.798, 0.610, 11:01:45.142
96, -187500.02, -187500.02, -187500.02, -187500.02, -187500.02, -187500.02, -187500.02, 183353.83, 0.000, 0.000, 0.000, 11:01:45.142
97, -187500.02, -187500.02, -187500.02, -187500.02, -187500.02, -187500.02, -187500.02, 183342.08, 0.000, 0.000, 0.000, 11:01:45.142
98, -187500.02, -187500.02, -187500.02, -187500.02, -187500.02, -187500.02, -187500.02, 183331.28, 0.000, 0.000, 0.000, 11:01:45.142
99, -187500.02, -187500.02, -187500.02, -187500.02, -187500.02, -187500.02, -187500.02, 183324.05, 0.000, 0.000, 0.000, 11:01:45.143
100, -187500.02, -187500.02, -187500.02, -187500.02, -187500.02, -187500.02, -187500.02, 183318.52, 0.000, 0.000, 0.000, 11:01:45.143
101, -187500.02, -187500.02, -187500.02, -187500.02, -187500.02, -187500.02, -187500.02, 183306.84, 0.000, 0.000, 0.000, 11:01:45.143
102, -187500.02, -187500.02, -187500.02, -187500.02, -187500.02, -187500.02, -187500.02, 183293.33, 0.000, 0.000, 0.000, 11:01:45.143
103, -187500.02, -187500.02, -187500.02, -187500.02, -187500.02, -187500.02, -187500.02, 183286.41, 0.000, 0.000, 0.000, 11:01:45.144
104, -187500.02, -187500.02, -187500.02, -187500.02, -187500.02, -187500.02, -187500.02, 183281.45, 0.000, 0.000, 0.000, 11:01:45.144
105, -187500.02, -187500.02, -187500.02, -187500.02, -187500.02, -187500.02, -187500.02, 183272.45, -0.156, 0.800, 0.606, 11:01:45.144
106, -187500.02, -187500.02, -187500.02, -187500.02, -187500.02, -187500.02, -187500.02, 183260.97, 0.000, 0.000, 0.000, 11:01:45.144
107, -187500.02, -187500.02, -187500.02, -187500.02, -187500.02, -187500.02, -187500.02, 183250.86, 0.000, 0.000, 0.000, 11:01:45.145
108, -187500.02, -187500.02, -187500.02, -187500.02, -187500.02, -187500.02, -187500.02, 183241.41, 0.000, 0.000, 0.000, 11:01:45.145
109, -187500.02, -187500.02, -187500.02, -187500.02, -187500.02, -187500.02, -187500.02, 183231.95, 0.000, 0.000, 0.000, 11:01:45.145
110, -187500.02, -187500.02, -187500.02, -187500.02, -187500.02, -187500.02, -187500.02, 183221.09, 0.000, 0.000, 0.000, 11:01:45.145
111, -187500.02, -187500.02, -187500.02, -187500.02, -187500.02, -187500.02, -187500.02, 183212.30, 0.000, 0.000, 0.000, 11:01:45.146
112, -187500.02, -187500.02, -187500.02, -187500.02, -187500.02, -187500.02, -187500.02, 183204.44, 0.000, 0.000, 0.000, 11:01:45.146
113, -187500.02, -187500.02, -187500.02, -187500.02, -187500.02, -187500.02, -187500.02, 183197.11, 0.000, 0.000, 0.000, 11:01:45.146
114, -187500.02, -187500.02, -187500.02, -187500.02, -187500.02, -187500.02, -187500.02, 183188.03, 0.000, 0.000, 0.000, 11:01:45.146
115, -187500.02, -187500.02, -187500.02, -187500.02, -187500.02, -187500.02, -187500.02, 183176.77, -0.156, 0.800, 0.610, 11:01:45.147
116, -187500.02, -187500.02, -187500.02, -187500.02, -187500.02, -187500.02, -187500.02, 183166.66, 0.000, 0.000, 0.000, 11:01:45.147
117, -187500.02, -187500.02, -187500.02, -187500.02, -187500.02, -187500.02, -187500.02, 183157.31, 0.000, 0.000, 0.000, 11:01:45.147
118, -187500.02, -187500.02, -187500.02, -187500.02, -187500.02, -187500.02, -187500.02, 183148.36, 0.000, 0.000, 0.000, 11:01:45.147
119, -187500.02, -187500.02, -187500.02, -187500.02, -187500.02, -187500.02, -187500.02, 183136.84, 0.000, 0.000, 0.000, 11:01:45.147
120, -187500.02, -187500.02, -187500.02, -187500.02, -187500.02, -187500.02, -187500.02, 183128.97, 0.000, 0.000, 0.000, 11:01:45.542
121, -187500.02, -187500.02, -187500.02, -187500.02, -187500.02, -187500.02, -187500.02, 183119.03, 0.000, 0.000, 0.000, 11:01:45.543
122, -187500.02, -187500.02, -187500.02, -187500.02, -187500.02, -187500.02, -187500.02, 183105.81, 0.000, 0.000, 0.000, 11:01:45.543
123, -187500.02, -187500.02, -187500.02, -187500.02, -187500.02, -187500.02, -187500.02, 183093.48, 0.000, 0.000, 0.000, 11:01:45.543
124, -187500.02, -187500.02, -187500.02, -187500.02, -187500.02, -187500.02, -187500.02, 183083.94, 0.000, 0.000, 0.000, 11:01:45.544
125, -187500.02, -187500.02, -187500.02, -187500.02, -187500.02, -187500.02, -187500.02, 183074.59, -0.162, 0.798, 0.614, 11:01:45.544
126, -187500.02, -187500.02, -187500.02, -187500.02, -187500.02, -187500.02, -187500.02, 183065.50, 0.000, 0.000, 0.000, 11:01:45.544
127, -187500.02, -187500.02, -187500.02, -187500.02, -187500.02, -187500.02, -187500.02, 183055.38, 0.000, 0.000, 0.000, 11:01:45.545
128, -187500.02, -187500.02, -187500.02, -187500.02, -187500.02, -187500.02, -187500.02, 183045.00, 0.000, 0.000, 0.000, 11:01:45.545
129, -187500.02, -187500.02, -187500.02, -187500.02, -187500.02, -187500.02, -187500.02, 183032.75, 0.000, 0.000, 0.000, 11:01:45.545
130, -187500.02, -187500.02, -187500.02, -187500.02, -187500.02, -187500.02, -187500.02, 183018.92, 0.000, 0.000, 0.000, 11:01:45.545
131, -187500.02, -187500.02, -187500.02, -187500.02, -187500.02, -187500.02, -187500.02, 183003.73, 0.000, 0.000, 0.000, 11:01:45.545
132, -187500.02, -187500.02, -187500.02, -187500.02, -187500.02, -187500.02, -187500.02, 182991.41, 0.000, 0.000, 0.000, 11:01:45.546
133, -187500.02, -187500.02, -187500.02, -187500.02, -187500.02, -187500.02, -187500.02, 182978.89, 0.000, 0.000, 0.000, 11:01:45.546
134, -187500.02, -187500.02, -187500.02, -187500.02, -187500.02, -187500.02, -187500.02, 182966.86, 0.000, 0.000, 0.000, 11:01:45.546
135, -187500.02, -187500.02, -187500.02, -187500.02, -187500.02, -187500.02, -187500.02, 182950.55, -0.156, 0.802, 0.608, 11:01:45.546
136, -187500.02, -187500.02, -187500.02, -187500.02, -187500.02, -187500.02, -187500.02, 182937.72, 0.000, 0.000, 0.000, 11:01:45.547
137, -187500.02, -187500.02, -187500.02, -187500.02, -187500.02, -187500.02, -187500.02, 182925.23, 0.000, 0.000, 0.000, 11:01:45.547
138, -187500.02, -187500.02, -187500.02, -187500.02, -187500.02, -187500.02, -187500.02, 182912.30, 0.000, 0.000, 0.000, 11:01:45.547
139, -187500.02, -187500.02, -187500.02, -187500.02, -187500.02, -187500.02, -187500.02, 182897.09, 0.000, 0.000, 0.000, 11:01:45.547
140, -187500.02, -187500.02, -187500.02, -187500.02, -187500.02, -187500.02, -187500.02, 182882.19, 0.000, 0.000, 0.000, 11:01:45.547
141, -187500.02, -187500.02, -187500.02, -187500.02, -187500.02, -187500.02, -187500.02, 182872.72, 0.000, 0.000, 0.000, 11:01:45.548
142, -187500.02, -187500.02, -187500.02, -187500.02, -187500.02, -187500.02, -187500.02, 182864.72, 0.000, 0.000, 0.000, 11:01:45.548
143, -187500.02, -187500.02, -187500.02, -187500.02, -187500.02, -187500.02, -187500.02, 182855.34, 0.000, 0.000, 0.000, 11:01:45.548
144, -187500.02, -187500.02, -187500.02, -187500.02, -187500.02, -187500.02, -187500.02, 182845.48, 0.000, 0.000, 0.000, 11:01:45.548
145, -187500.02, -187500.02, -187500.02, -187500.02, -187500.02, -187500.02, -187500.02, 182839.44, -0.150, 0.788, 0.612, 11:01:45.549
146, -187500.02, -187500.02, -187500.02, -187500.02, -187500.02, -187500.02, -187500.02, 182834.88, 0.000, 0.000, 0.000, 11:01:45.549
147, -187500.02, -187500.02, -187500.02, -187500.02, -187500.02, -187500.02, -187500.02, 182828.97, 0.000, 0.000, 0.000, 11:01:45.549
148, -187500.02, -187500.02, -187500.02, -187500.02, -187500.02, -187500.02, -187500.02, 182822.38, 0.000, 0.000, 0.000, 11:01:45.549
149, -187500.02, -187500.02, -187500.02, -187500.02, -187500.02, -187500.02, -187500.02, 182816.56, 0.000, 0.000, 0.000, 11:01:45.549
150, -187500.02, -187500.02, -187500.02, -187500.02, -187500.02, -187500.02, -187500.02, 182815.52, 0.000, 0.000, 0.000, 11:01:45.552
151, -187500.02, -187500.02, -187500.02, -187500.02, -187500.02, -187500.02, -187500.02, 182814.78, 0.000, 0.000, 0.000, 11:01:45.552
152, -187500.02, -187500.02, -187500.02, -187500.02, -187500.02, -187500.02, -187500.02, 182811.20, 0.000, 0.000, 0.000, 11:01:45.552
153, -187500.02, -187500.02, -187500.02, -187500.02, -187500.02, -187500.02, -187500.02, 182809.80, 0.000, 0.000, 0.000, 11:01:45.552
154, -187500.02, -187500.02, -187500.02, -187500.02, -187500.02, -187500.02, -187500.02, 182811.77, -0.146, 0.790, 0.620, 11:01:45.553
155, -187500.02, -187500.02, -187500.02, -187500.02, -187500.02, -187500.02, -187500.02, 182807.94, 0.000, 0.000, 0.000, 11:01:45.553
156, -187500.02, -187500.02, -187500.02, -187500.02, -187500.02, -187500.02, -187500.02, 182805.41, 0.000, 0.000, 0.000, 11:01:45.553
157, -187500.02, -187500.02, -187500.02, -187500.02, -187500.02, -187500.02, -187500.02, 182802.31, 0.000, 0.000, 0.000, 11:01:45.553
158, -187500.02, -187500.02, -187500.02, -187500.02, -187500.02, -187500.02, -187500.02, 182799.36, 0.000, 0.000, 0.000, 11:01:45.554
159, -187500.02, -187500.02, -187500.02, -187500.02, -187500.02, -187500.02, -187500.02, 182793.81, 0.000, 0.000, 0.000, 11:01:45.554
160, -187500.02, -187500.02, -187500.02, -187500.02, -187500.02, -187500.02, -187500.02, 182785.00, 0.000, 0.000, 0.000, 11:01:45.555
161, -187500.02, -187500.02, -187500.02, -187500.02, -187500.02, -187500.02, -187500.02, 182777.70, 0.000, 0.000, 0.000, 11:01:45.556
162, -187500.02, -187500.02, -187500.02, -187500.02, -187500.02, -187500.02, -187500.02, 182770.00, 0.000, 0.000, 0.000, 11:01:45.556
163, -187500.02, -187500.02, -187500.02, -187500.02, -187500.02, -187500.02, -187500.02, 182760.17, 0.000, 0.000, 0.000, 11:01:45.557
164, -187500.02, -187500.02, -187500.02, -187500.02, -187500.02, -187500.02, -187500.02, 182749.38, -0.144, 0.788, 0.624, 11:01:45.557
165, -187500.02, -187500.02, -187500.02, -187500.02, -187500.02, -187500.02, -187500.02, 182741.16, 0.000, 0.000, 0.000, 11:01:45.557
166, -187500.02, -187500.02, -187500.02, -187500.02, -187500.02, -187500.02, -187500.02, 182735.88, 0.000, 0.000, 0.000, 11:01:45.557
167, -187500.02, -187500.02, -187500.02, -187500.02, -187500.02, -187500.02, -187500.02, 182730.20, 0.000, 0.000, 0.000, 11:01:45.558
168, -187500.02, -187500.02, -187500.02, -187500.02, -187500.02, -187500.02, -187500.02, 182721.92, 0.000, 0.000, 0.000, 11:01:45.558
169, -187500.02, -187500.02, -187500.02, -187500.02, -187500.02, -187500.02, -187500.02, 182714.75, 0.000, 0.000, 0.000, 11:01:45.558
170, -187500.02, -187500.02, -187500.02, -187500.02, -187500.02, -187500.02, -187500.02, 182709.28, 0.000, 0.000, 0.000, 11:01:45.558
171, -187500.02, -187500.02, -187500.02, -187500.02, -187500.02, -187500.02, -187500.02, 182701.23, 0.000, 0.000, 0.000, 11:01:45.558
172, -187500.02, -187500.02, -187500.02, -187500.02, -187500.02, -187500.02, -187500.02, 182690.84, 0.000, 0.000, 0.000, 11:01:45.559
173, -187500.02, -187500.02, -187500.02, -187500.02, -187500.02, -187500.02, -187500.02, 182681.16, 0.000, 0.000, 0.000, 11:01:45.560
174, -187500.02, -187500.02, -187500.02, -187500.02, -187500.02, -187500.02, -187500.02, 182673.72, -0.158, 0.794, 0.620, 11:01:45.562
175, -187500.02, -187500.02, -187500.02, -187500.02, -187500.02, -187500.02, -187500.02, 182666.23, 0.000, 0.000, 0.000, 11:01:45.562
176, -187500.02, -187500.02, -187500.02, -187500.02, -187500.02, -187500.02, -187500.02, 182658.98, 0.000, 0.000, 0.000, 11:01:45.577
177, -187500.02, -187500.02, -187500.02, -187500.02, -187500.02, -187500.02, -187500.02, 182651.28, 0.000, 0.000, 0.000, 11:01:45.577
178, -187500.02, -187500.02, -187500.02, -187500.02, -187500.02, -187500.02, -187500.02, 182644.23, 0.000, 0.000, 0.000, 11:01:45.577
179, -187500.02, -187500.02, -187500.02, -187500.02, -187500.02, -187500.02, -187500.02, 182639.52, 0.000, 0.000, 0.000, 11:01:45.577
180, -187500.02, -187500.02, -187500.02, -187500.02, -187500.02, -187500.02, -187500.02, 182630.23, 0.000, 0.000, 0.000, 11:01:45.578
181, -187500.02, -187500.02, -187500.02, -187500.02, -187500.02, -187500.02, -187500.02, 182622.80, 0.000, 0.000, 0.000, 11:01:45.578
182, -187500.02, -187500.02, -187500.02, -187500.02, -187500.02, -187500.02, -187500.02, 182617.70, 0.000, 0.000, 0.000, 11:01:45.578
183, -187500.02, -187500.02, -187500.02, -187500.02, -187500.02, -187500.02, -187500.02, 182612.42, 0.000, 0.000, 0.000, 11:01:45.578
184, -187500.02, -187500.02, -187500.02, -187500.02, -187500.02, -187500.02, -187500.02, 182606.61, -0.162, 0.792, 0.618, 11:01:45.578
185, -187500.02, -187500.02, -187500.02, -187500.02, -187500.02, -187500.02, -187500.02, 182601.36, 0.000, 0.000, 0.000, 11:01:45.579
186, -187500.02, -187500.02, -187500.02, -187500.02, -187500.02, -187500.02, -187500.02, 182595.08, 0.000, 0.000, 0.000, 11:01:45.579
187, -187500.02, -187500.02, -187500.02, -187500.02, -187500.02, -187500.02, -187500.02, 182589.67, 0.000, 0.000, 0.000, 11:01:45.579
188, -187500.02, -187500.02, -187500.02, -187500.02, -187500.02, -187500.02, -187500.02, 182583.19, 0.000, 0.000, 0.000, 11:01:45.579
189, -187500.02, -187500.02, -187500.02, -187500.02, -187500.02, -187500.02, -187500.02, 182576.27, 0.000, 0.000, 0.000, 11:01:45.579
190, -187500.02, -187500.02, -187500.02, -187500.02, -187500.02, -187500.02, -187500.02, 182568.47, 0.000, 0.000, 0.000, 11:01:45.580
191, -187500.02, -187500.02, -187500.02, -187500.02, -187500.02, -187500.02, -187500.02, 182564.02, 0.000, 0.000, 0.000, 11:01:45.580
192, -187500.02, -187500.02, -187500.02, -187500.02, -187500.02, -187500.02, -187500.02, 182558.58, 0.000, 0.000, 0.000, 11:01:45.580
193, -187500.02, -187500.02, -187500.02, -187500.02, -187500.02, -187500.02, -187500.02, 182555.16, 0.000, 0.000, 0.000, 11:01:45.580
194, -187500.02, -187500.02, -187500.02, -187500.02, -187500.02, -187500.02, -187500.02, 182544.34, -0.160, 0.786, 0.620, 11:01:45.581
195, -187500.02, -187500.02, -187500.02, -187500.02, -187500.02, -187500.02, -187500.02, 182538.78, 0.000, 0.000, 0.000, 11:01:45.581
196, -187500.02, -187500.02, -187500.02, -187500.02, -187500.02, -187500.02, -187500.02, 182533.48, 0.000, 0.000, 0.000, 11:01:45.581
197, -187500.02, -187500.02, -187500.02, -187500.02, -187500.02, -187500.02, -187500.02, 182525.41, 0.000, 0.000, 0.000, 11:01:45.581
198, -187500.02, -187500.02, -187500.02, -187500.02, -187500.02, -187500.02, -187500.02, 182516.47, 0.000, 0.000, 0.000, 11:01:45.581
199, -187500.02, -187500.02, -187500.02, -187500.02, -187500.02, -187500.02, -187500.02, 182510.75, 0.000, 0.000, 0.000, 11:01:45.582
200, -187500.02, -187500.02, -187500.02, -187500.02, -187500.02, -187500.02, -187500.02, 182505.50, 0.000, 0.000, 0.000, 11:01:45.582
201, -187500.02, -187500.02, -187500.02, -187500.02, -187500.02, -187500.02, -187500.02, 182497.97, 0.000, 0.000, 0.000, 11:01:45.582
202, -187500.02, -187500.02, -187500.02, -187500.02, -187500.02, -187500.02, -187500.02, 182487.92, 0.000, 0.000, 0.000, 11:01:45.582
203, -187500.02, -187500.02, -187500.02, -187500.02, -187500.02, -187500.02, -187500.02, 182477.98, 0.000, 0.000, 0.000, 11:01:45.582
204, -187500.02, -187500.02, -187500.02, -187500.02, -187500.02, -187500.02, -187500.02, 182469.63, -0.164, 0.788, 0.620, 11:01:45.583
205, -187500.02, -187500.02, -187500.02, -187500.02, -187500.02, -187500.02, -187500.02, 182458.80, 0.000, 0.000, 0.000, 11:01:45.583
206, -187500.02, -187500.02, -187500.02, -187500.02, -187500.02, -187500.02, -187500.02, 182445.02, 0.000, 0.000, 0.000, 11:01:45.583
207, -187500.02, -187500.02, -187500.02, -187500.02, -187500.02, -187500.02, -187500.02, 182434.06, 0.000, 0.000, 0.000, 11:01:45.583
208, -187500.02, -187500.02, -187500.02, -187500.02, -187500.02, -187500.02, -187500.02, 182425.30, 0.000, 0.000, 0.000, 11:01:45.584
209, -187500.02, -187500.02, -187500.02, -187500.02, -187500.02, -187500.02, -187500.02, 182414.55, 0.000, 0.000, 0.000, 11:01:45.584
210, -187500.02, -187500.02, -187500.02, -187500.02, -187500.02, -187500.02, -187500.02, 182404.72, 0.000, 0.000, 0.000, 11:01:45.584
211, -187500.02, -187500.02, -187500.02, -187500.02, -187500.02, -187500.02, -187500.02, 182394.05, 0.000, 0.000, 0.000, 11:01:45.584
212, -187500.02, -187500.02, -187500.02, -187500.02, -187500.02, -187500.02, -187500.02, 182384.81, 0.000, 0.000, 0.000, 11:01:45.584
213, -187500.02, -187500.02, -187500.02, -187500.02, -187500.02, -187500.02, -187500.02, 182376.50, 0.000, 0.000, 0.000, 11:01:45.585
214, -187500.02, -187500.02, -187500.02, -187500.02, -187500.02, -187500.02, -187500.02, 182365.59, -0.156, 0.784, 0.618, 11:01:45.585
215, -187500.02, -187500.02, -187500.02, -187500.02, -187500.02, -187500.02, -187500.02, 182355.89, 0.000, 0.000, 0.000, 11:01:45.585
216, -187500.02, -187500.02, -187500.02, -187500.02, -187500.02, -187500.02, -187500.02, 182347.17, 0.000, 0.000, 0.000, 11:01:45.585
217, -187500.02, -187500.02, -187500.02, -187500.02, -187500.02, -187500.02, -187500.02, 182337.70, 0.000, 0.000, 0.000, 11:01:45.585
218, -187500.02, -187500.02, -187500.02, -187500.02, -187500.02, -187500.02, -187500.02, 182329.86, 0.000, 0.000, 0.000, 11:01:45.586
219, -187500.02, -187500.02, -187500.02, -187500.02, -187500.02, -187500.02, -187500.02, 182320.80, 0.000, 0.000, 0.000, 11:01:45.586
220, -187500.02, -187500.02, -187500.02, -187500.02, -187500.02, -187500.02, -187500.02, 182312.00, 0.000, 0.000, 0.000, 11:01:45.586
221, -187500.02, -187500.02, -187500.02, -187500.02, -187500.02, -187500.02, -187500.02, 182305.63, 0.000, 0.000, 0.000, 11:01:45.586
222, -187500.02, -187500.02, -187500.02, -187500.02, -187500.02, -187500.02, -187500.02, 182297.89, 0.000, 0.000, 0.000, 11:01:45.586
223, -187500.02, -187500.02, -187500.02, -187500.02, -187500.02, -187500.02, -187500.02, 182289.36, -0.156, 0.792, 0.622, 11:01:45.587
224, -187500.02, -187500.02, -187500.02, -187500.02, -187500.02, -187500.02, -187500.02, 182282.02, 0.000, 0.000, 0.000, 11:01:45.587
225, -187500.02, -187500.02, -187500.02, -187500.02, -187500.02, -187500.02, -187500.02, 182275.55, 0.000, 0.000, 0.000, 11:01:45.588
226, -187500.02, -187500.02, -187500.02, -187500.02, -187500.02, -187500.02, -187500.02, 182265.08, 0.000, 0.000, 0.000, 11:01:45.588
227, -187500.02, -187500.02, -187500.02, -187500.02, -187500.02, -187500.02, -187500.02, 182256.61, 0.000, 0.000, 0.000, 11:01:45.589
228, -187500.02, -187500.02, -187500.02, -187500.02, -187500.02, -187500.02, -187500.02, 182252.50, 0.000, 0.000, 0.000, 11:01:45.589
229, -187500.02, -187500.02, -187500.02, -187500.02, -187500.02, -187500.02, -187500.02, 182247.88, 0.000, 0.000, 0.000, 11:01:45.589
230, -187500.02, -187500.02, -187500.02, -187500.02, -187500.02, -187500.02, -187500.02, 182240.50, 0.000, 0.000, 0.000, 11:01:45.589
231, -187500.02, -187500.02, -187500.02, -187500.02, -187500.02, -187500.02, -187500.02, 182230.03, 0.000, 0.000, 0.000, 11:01:45.589
232, -187500.02, -187500.02, -187500.02, -187500.02, -187500.02, -187500.02, -187500.02, 182221.42, 0.000, 0.000, 0.000, 11:01:45.590
233, -187500.02, -187500.02, -187500.02, -187500.02, -187500.02, -187500.02, -187500.02, 182214.59, -0.160, 0.792, 0.620, 11:01:45.590
234, -187500.02, -187500.02, -187500.02, -187500.02, -187500.02, -187500.02, -187500.02, 182208.83, 0.000, 0.000, 0.000, 11:01:45.590
235, -187500.02, -187500.02, -187500.02, -187500.02, -187500.02, -187500.02, -187500.02, 182202.36, 0.000, 0.000, 0.000, 11:01:45.590
236, -187500.02, -187500.02, -187500.02, -187500.02, -187500.02, -187500.02, -187500.02, 182195.33, 0.000, 0.000, 0.000, 11:01:45.590
237, -187500.02, -187500.02, -187500.02, -187500.02, -187500.02, -187500.02, -187500.02, 182190.67, 0.000, 0.000, 0.000, 11:01:45.591
238, -187500.02, -187500.02, -187500.02, -187500.02, -187500.02, -187500.02, -187500.02, 182184.41, 0.000, 0.000, 0.000, 11:01:45.591
239, -187500.02, -187500.02, -187500.02, -187500.02, -187500.02, -187500.02, -187500.02, 182175.23, 0.000, 0.000, 0.000, 11:01:45.591
240, -187500.02, -187500.02, -187500.02, -187500.02, -187500.02, -187500.02, -187500.02, 182165.73, 0.000, 0.000, 0.000, 11:01:46.017
241, -187500.02, -187500.02, -187500.02, -187500.02, -187500.02, -187500.02, -187500.02, 182159.92, 0.000, 0.000, 0.000, 11:01:46.017
242, -187500.02, -187500.02, -187500.02, -187500.02, -187500.02, -187500.02, -187500.02, 182152.00, 0.000, 0.000, 0.000, 11:01:46.017
243, -187500.02, -187500.02, -187500.02, -187500.02, -187500.02, -187500.02, -187500.02, 182143.44, -0.154, 0.796, 0.622, 11:01:46.018
244, -187500.02, -187500.02, -187500.02, -187500.02, -187500.02, -187500.02, -187500.02, 182134.72, 0.000, 0.000, 0.000, 11:01:46.018
245, -187500.02, -187500.02, -187500.02, -187500.02, -187500.02, -187500.02, -187500.02, 182126.97, 0.000, 0.000, 0.000, 11:01:46.018
246, -187500.02, -187500.02, -187500.02, -187500.02, -187500.02, -187500.02, -187500.02, 182117.81, 0.000, 0.000, 0.000, 11:01:46.018
247, -187500.02, -187500.02, -187500.02, -187500.02, -187500.02, -187500.02, -187500.02, 182108.95, 0.000, 0.000, 0.000, 11:01:46.019
248, -187500.02, -187500.02, -187500.02, -187500.02, -187500.02, -187500.02, -187500.02, 182102.77, 0.000, 0.000, 0.000, 11:01:46.019
249, -187500.02, -187500.02, -187500.02, -187500.02, -187500.02, -187500.02, -187500.02, 182096.45, 0.000, 0.000, 0.000, 11:01:46.019
250, -187500.02, -187500.02, -187500.02, -187500.02, -187500.02, -187500.02, -187500.02, 182089.23, 0.000, 0.000, 0.000, 11:01:46.019
251, -187500.02, -187500.02, -187500.02, -187500.02, -187500.02, -187500.02, -187500.02, 182082.84, 0.000, 0.000, 0.000, 11:01:46.020
252, -187500.02, -187500.02, -187500.02, -187500.02, -187500.02, -187500.02, -187500.02, 182073.80, 0.000, 0.000, 0.000, 11:01:46.020
253, -187500.02, -187500.02, -187500.02, -187500.02, -187500.02, -187500.02, -187500.02, 182064.88, -0.150, 0.782, 0.620, 11:01:46.020
254, -187500.02, -187500.02, -187500.02, -187500.02, -187500.02, -187500.02, -187500.02, 182059.22, 0.000, 0.000, 0.000, 11:01:46.021
255, -187500.02, -187500.02, -187500.02, -187500.02, -187500.02, -187500.02, -187500.02, 182051.53, 0.000, 0.000, 0.000, 11:01:46.021
0, -187500.02, -187500.02, -187500.02, -187500.02, -187500.02, -187500.02, -187500.02, 182043.19, 0.000, 0.000, 0.000, 11:01:46.021
1, -187500.02, -187500.02, -187500.02, -187500.02, -187500.02, -187500.02, -187500.02, 182036.33, 0.000, 0.000, 0.000, 11:01:46.022
2, -187500.02, -187500.02, -187500.02, -187500.02, -187500.02, -187500.02, -187500.02, 182028.72, 0.000, 0.000, 0.000, 11:01:46.022
3, -187500.02, -187500.02, -187500.02, -187500.02, -187500.02, -187500.02, -187500.02, 182023.95, 0.000, 0.000, 0.000, 11:01:46.022
4, -187500.02, -187500.02, -187500.02, -187500.02, -187500.02, -187500.02, -187500.02, 182017.77, 0.000, 0.000, 0.000, 11:01:46.022
5, -187500.02, -187500.02, -187500.02, -187500.02, -187500.02, -187500.02, -187500.02, 182009.09, 0.000, 0.000, 0.000, 11:01:46.022
6, -187500.02, -187500.02, -187500.02, -187500.02, -187500.02, -187500.02, -187500.02, 182004.84, 0.000, 0.000, 0.000, 11:01:46.023
7, -187500.02, -187500.02, -187500.02, -187500.02, -187500.02, -187500.02, -187500.02, 181995.70, -0.150, 0.788, 0.630, 11:01:46.023
8, -187500.02, -187500.02, -187500.02, -187500.02, -187500.02, -187500.02, -187500.02, 181983.83, 0.000, 0.000, 0.000, 11:01:46.023
9, -187500.02, -187500.02, -187500.02, -187500.02, -187500.02, -187500.02, -187500.02, 181974.11, 0.000, 0.000, 0.000, 11:01:46.023
10, -187500.02, -187500.02, -187500.02, -187500.02, -187500.02, -187500.02, -187500.02, 181969.97, 0.000, 0.000, 0.000, 11:01:46.023
11, -187500.02, -187500.02, -187500.02, -187500.02, -187500.02, -187500.02, -187500.02, 181964.16, 0.000, 0.000, 0.000, 11:01:46.024
12, -187500.02, -187500.02, -187500.02, -187500.02, -187500.02, -187500.02, -187500.02, 181956.25, 0.000, 0.000, 0.000, 11:01:46.024
13, -187500.02, -187500.02, -187500.02, -187500.02, -187500.02, -187500.02, -187500.02, 181948.30, 0.000, 0.000, 0.000, 11:01:46.024
14, -187500.02, -187500.02, -187500.02, -187500.02, -187500.02, -187500.02, -187500.02, 181940.84, 0.000, 0.000, 0.000, 11:01:46.026
15, -187500.02, -187500.02, -187500.02, -187500.02, -187500.02, -187500.02, -187500.02, 181936.06, 0.000, 0.000, 0.000, 11:01:46.027
16, -187500.02, -187500.02, -187500.02, -187500.02, -187500.02, -187500.02, -187500.02, 181927.41, 0.000, 0.000, 0.000, 11:01:46.027
17, -187500.02, -187500.02, -187500.02, -187500.02, -187500.02, -187500.02, -187500.02, 181914.88, -0.158, 0.784, 0.630, 11:01:46.027
18, -187500.02, -187500.02, -187500.02, -187500.02, -187500.02, -187500.02, -187500.02, 181905.55, 0.000, 0.000, 0.000, 11:01:46.027
19, -187500.02, -187500.02, -187500.02, -187500.02, -187500.02, -187500.02, -187500.02, 181897.11, 0.000, 0.000, 0.000, 11:01:46.027
20, -187500.02, -187500.02, -187500.02, -187500.02, -187500.02, -187500.02, -187500.02, 181887.84, 0.000, 0.000, 0.000, 11:01:46.028
21, -187500.02, -187500.02, -187500.02, -187500.02, -187500.02, -187500.02, -187500.02, 181879.00, 0.000, 0.000, 0.000, 11:01:46.028
22, -187500.02, -187500.02, -187500.02, -187500.02, -187500.02, -187500.02, -187500.02, 181873.03, 0.000, 0.000, 0.000, 11:01:46.028
23, -187500.02, -187500.02, -187500.02, -187500.02, -187500.02, -187500.02, -187500.02, 181865.09, 0.000, 0.000, 0.000, 11:01:46.028
24, -187500.02, -187500.02, -187500.02, -187500.02, -187500.02, -187500.02, -187500.02, 181858.02, 0.000, 0.000, 0.000, 11:01:46.028
25, -187500.02, -187500.02, -187500.02, -187500.02, -187500.02, -187500.02, -187500.02, 181849.70, 0.000, 0.000, 0.000, 11:01:46.028
26, -187500.02, -187500.02, -187500.02, -187500.02, -187500.02, -187500.02, -187500.02, 181843.23, 0.000, 0.000, 0.000, 11:01:46.029
27, -187500.02, -187500.02, -187500.02, -187500.02, -187500.02, -187500.02, -187500.02, 181834.72, -0.154, 0.784, 0.622, 11:01:46.029
28, -187500.02, -187500.02, -187500.02, -187500.02, -187500.02, -187500.02, -187500.02, 181829.11, 0.000, 0.000, 0.000, 11:01:46.029
29, -187500.02, -187500.02, -187500.02, -187500.02, -187500.02, -187500.02, -187500.02, 181821.08, 0.000, 0.000, 0.000, 11:01:46.029
30, -187500.02, -187500.02, -187500.02, -187500.02, -187500.02, -187500.02, -187500.02, 181811.78, 0.000, 0.000, 0.000, 11:01:46.029
31, -187500.02, -187500.02, -187500.02, -187500.02, -187500.02, -187500.02, -187500.02, 181803.42, 0.000, 0.000, 0.000, 11:01:46.030
32, -187500.02, -187500.02, -187500.02, -187500.02, -187500.02, -187500.02, -187500.02, 181794.36, 0.000, 0.000, 0.000, 11:01:46.030
33, -187500.02, -187500.02, -187500.02, -187500.02, -187500.02, -187500.02, -187500.02, 181786.23, 0.000, 0.000, 0.000, 11:01:46.030
34, -187500.02, -187500.02, -187500.02, -187500.02, -187500.02, -187500.02, -187500.02, 181776.03, 0.000, 0.000, 0.000, 11:01:46.031
35, -187500.02, -187500.02, -187500.02, -187500.02, -187500.02, -187500.02, -187500.02, 181766.56, 0.000, 0.000, 0.000, 11:01:46.031
36, -187500.02, -187500.02, -187500.02, -187500.02, -187500.02, -187500.02, -187500.02, 181757.88, -0.144, 0.784, 0.630, 11:01:46.031
37, -187500.02, -187500.02, -187500.02, -187500.02, -187500.02, -187500.02, -187500.02, 181749.20, 0.000, 0.000, 0.000, 11:01:46.031
38, -187500.02, -187500.02, -187500.02, -187500.02, -187500.02, -187500.02, -187500.02, 181738.86, 0.000, 0.000, 0.000, 11:01:46.031
39, -187500.02, -187500.02, -187500.02, -187500.02, -187500.02, -187500.02, -187500.02, 181729.09, 0.000, 0.000, 0.000, 11:01:46.031
40, -187500.02, -187500.02, -187500.02, -187500.02, -187500.02, -187500.02, -187500.02, 181721.16, 0.000, 0.000, 0.000, 11:01:46.031
41, -187500.02, -187500.02, -187500.02, -187500.02, -187500.02, -187500.02, -187500.02, 181713.78, 0.000, 0.000, 0.000, 11:01:46.031
42, -187500.02, -187500.02, -187500.02, -187500.02, -187500.02, -187500.02, -187500.02, 181706.64, 0.000, 0.000, 0.000, 11:01:46.032
43, -187500.02, -187500.02, -187500.02, -187500.02, -187500.02, -187500.02, -187500.02, 181697.91, 0.000, 0.000, 0.000, 11:01:46.032
44, -187500.02, -187500.02, -187500.02, -187500.02, -187500.02, -187500.02, -187500.02, 181689.86, 0.000, 0.000, 0.000, 11:01:46.032
45, -187500.02, -187500.02, -187500.02, -187500.02, -187500.02, -187500.02, -187500.02, 181679.59, 0.000, 0.000, 0.000, 11:01:46.041
46, -187500.02, -187500.02, -187500.02, -187500.02, -187500.02, -187500.02, -187500.02, 181670.69, -0.146, 0.776, 0.626, 11:01:46.042
47, -187500.02, -187500.02, -187500.02, -187500.02, -187500.02, -187500.02, -187500.02, 181663.27, 0.000, 0.000, 0.000, 11:01:46.042
48, -187500.02, -187500.02, -187500.02, -187500.02, -187500.02, -187500.02, -187500.02, 181653.14, 0.000, 0.000, 0.000, 11:01:46.042
49, -187500.02, -187500.02, -187500.02, -187500.02, -187500.02, -187500.02, -187500.02, 181643.55, 0.000, 0.000, 0.000, 11:01:46.042
50, -187500.02, -187500.02, -187500.02, -187500.02, -187500.02, -187500.02, -187500.02, 181633.67, 0.000, 0.000, 0.000, 11:01:46.043
51, -187500.02, -187500.02, -187500.02, -187500.02, -187500.02, -187500.02, -187500.02, 181621.70, 0.000, 0.000, 0.000, 11:01:46.044
52, -187500.02, -187500.02, -187500.02, -187500.02, -187500.02, -187500.02, -187500.02, 181610.58, 0.000, 0.000, 0.000, 11:01:46.044
53, -187500.02, -187500.02, -187500.02, -187500.02, -187500.02, -187500.02, -187500.02, 181597.23, 0.000, 0.000, 0.000, 11:01:46.044
54, -187500.02, -187500.02, -187500.02, -187500.02, -187500.02, -187500.02, -187500.02, 181579.22, 0.000, 0.000, 0.000, 11:01:46.045
55, -187500.02, -187500.02, -187500.02, -187500.02, -187500.02, -187500.02, -187500.02, 181562.00, 0.000, 0.000, 0.000, 11:01:46.045
56, -187500.02, -187500.02, -187500.02, -187500.02, -187500.02, -187500.02, -187500.02, 181545.56, -0.164, 0.760, 0.628, 11:01:46.046
57, -187500.02, -187500.02, -187500.02, -187500.02, -187500.02, -187500.02, -187500.02, 181526.36, 0.000, 0.000, 0.000, 11:01:46.047
58, -187500.02, -187500.02, -187500.02, -187500.02, -187500.02, -187500.02, -187500.02, 181506.44, 0.000, 0.000, 0.000, 11:01:46.049
59, -187500.02, -187500.02, -187500.02, -187500.02, -187500.02, -187500.02, -187500.02, 181488.09, 0.000, 0.000, 0.000, 11:01:46.050
60, -187500.02, -187500.02, -187500.02, -187500.02, -187500.02, -187500.02, -187500.02, 181472.78, 0.000, 0.000, 0.000, 11:01:46.051
61, -187500.02, -187500.02, -187500.02, -187500.02, -187500.02, -187500.02, -187500.02, 181460.80, 0.000, 0.000, 0.000, 11:01:46.051
62, -187500.02, -187500.02, -187500.02, -187500.02, -187500.02, -187500.02, -187500.02, 181447.64, 0.000, 0.000, 0.000, 11:01:46.051
63, -187500.02, -187500.02, -187500.02, -187500.02, -187500.02, -187500.02, -187500.02, 181427.67, 0.000, 0.000, 0.000, 11:01:46.051
64, -187500.02, -187500.02, -187500.02, -187500.02, -187500.02, -187500.02, -187500.02, 181409.09, 0.000, 0.000, 0.000, 11:01:46.051
65, -187500.02, -187500.02, -187500.02, -187500.02, -187500.02, -187500.02, -187500.02, 181393.72, 0.000, 0.000, 0.000, 11:01:46.052
66, -187500.02, -187500.02, -187500.02, -187500.02, -187500.02, -187500.02, -187500.02, 181377.25, -0.196, 0.770, 0.644, 11:01:46.052
67, -187500.02, -187500.02, -187500.02, -187500.02, -187500.02, -187500.02, -187500.02, 181343.67, 0.000, 0.000, 0.000, 11:01:46.052
68, -187500.02, -187500.02, -187500.02, -187500.02, -187500.02, -187500.02, -187500.02, 181272.03, 0.000, 0.000, 0.000, 11:01:46.052
69, -187500.02, -187500.02, -187500.02, -187500.02, -187500.02, -187500.02, -187500.02, 181184.67, 0.000, 0.000, 0.000, 11:01:46.052
70, -187500.02, -187500.02, -187500.02, -187500.02, -187500.02, -187500.02, -187500.02, 181073.36, 0.000, 0.000, 0.000, 11:01:46.052
71, -187500.02, -187500.02, -187500.02, -187500.02, -187500.02, -187500.02, -187500.02, 180934.42, 0.000, 0.000, 0.000, 11:01:46.053
72, -187500.02, -187500.02, -187500.02, -187500.02, -187500.02, -187500.02, -187500.02, 180780.36, 0.000, 0.000, 0.000, 11:01:46.053
73, -187500.02, -187500.02, -187500.02, -187500.02, -187500.02, -187500.02, -187500.02, 180630.05, 0.000, 0.000, 0.000, 11:01:46.053
74, -187500.02, -187500.02, -187500.02, -187500.02, -187500.02, -187500.02, -187500.02, 180491.66, 0.000, 0.000, 0.000, 11:01:46.053
75, -187500.02, -187500.02, -187500.02, -187500.02, -187500.02, -187500.02, -187500.02, 180367.94, 0.000, 0.000, 0.000, 11:01:46.054
76, -187500.02, -187500.02, -187500.02, -187500.02, -187500.02, -187500.02, -187500.02, 180260.42, -0.248, 0.784, 0.640, 11:01:46.054
77, -187500.02, -187500.02, -187500.02, -187500.02, -187500.02, -187500.02, -187500.02, 180167.95, 0.000, 0.000, 0.000, 11:01:46.055
78, -187500.02, -187500.02, -187500.02, -187500.02, -187500.02, -187500.02, -187500.02, 180086.09, 0.000, 0.000, 0.000, 11:01:46.055
79, -187500.02, -187500.02, -187500.02, -187500.02, -187500.02, -187500.02, -187500.02, 180013.77, 0.000, 0.000, 0.000, 11:01:46.056
80, -187500.02, -187500.02, -187500.02, -187500.02, -187500.02, -187500.02, -187500.02, 179951.41, 0.000, 0.000, 0.000, 11:01:46.056
81, -187500.02, -187500.02, -187500.02, -187500.02, -187500.02, -187500.02, -187500.02, 179895.97, 0.000, 0.000, 0.000, 11:01:46.056
82, -187500.02, -187500.02, -187500.02, -187500.02, -187500.02, -187500.02, -187500.02, 179844.14, 0.000, 0.000, 0.000, 11:01:46.056
83, -187500.02, -187500.02, -187500.02, -187500.02, -187500.02, -187500.02, -187500.02, 179797.94, 0.000, 0.000, 0.000, 11:01:46.056
84, -187500.02, -187500.02, -187500.02, -187500.02, -187500.02, -187500.02, -187500.02, 179758.89, 0.000, 0.000, 0.000, 11:01:46.057
85, -187500.02, -187500.02, -187500.02, -187500.02, -187500.02, -187500.02, -187500.02, 179728.52, 0.000, 0.000, 0.000, 11:01:46.057
86, -187500.02, -187500.02, -187500.02, -187500.02, -187500.02, -187500.02, -187500.02, 179697.27, -0.212, 0.786, 0.614, 11:01:46.057
87, -187500.02, -187500.02, -187500.02, -187500.02, -187500.02, -187500.02, -187500.02, 179669.19, 0.000, 0.000, 0.000, 11:01:46.057
88, -187500.02, -187500.02, -187500.02, -187500.02, -187500.02, -187500.02, -187500.02, 179645.19, 0.000, 0.000, 0.000, 11:01:46.057
89, -187500.02, -187500.02, -187500.02, -187500.02, -187500.02, -187500.02, -187500.02, 179625.98, 0.000, 0.000, 0.000, 11:01:46.057
90, -187500.02, -187500.02, -187500.02, -187500.02, -187500.02, -187500.02, -187500.02, 179612.72, 0.000, 0.000, 0.000, 11:01:46.058
91, -187500.02, -187500.02, -187500.02, -187500.02, -187500.02, -187500.02, -187500.02, 179606.03, 0.000, 0.000, 0.000, 11:01:46.058
92, -187500.02, -187500.02, -187500.02, -187500.02, -187500.02, -187500.02, -187500.02, 179606.28, 0.000, 0.000, 0.000, 11:01:46.058
93, -187500.02, -187500.02, -187500.02, -187500.02, -187500.02, -187500.02, -187500.02, 179608.69, 0.000, 0.000, 0.000, 11:01:46.058
94, -187500.02, -187500.02, -187500.02, -187500.02, -187500.02, -187500.02, -187500.02, 179606.91, 0.000, 0.000, 0.000, 11:01:46.058
95, -187500.02, -187500.02, -187500.02, -187500.02, -187500.02, -187500.02, -187500.02, 179602.98, 0.000, 0.000, 0.000, 11:01:46.059
96, -187500.02, -187500.02, -187500.02, -187500.02, -187500.02, -187500.02, -187500.02, 179601.41, -0.170, 0.808, 0.602, 11:01:46.059
97, -187500.02, -187500.02, -187500.02, -187500.02, -187500.02, -187500.02, -187500.02, 179598.34, 0.000, 0.000, 0.000, 11:01:46.059
98, -187500.02, -187500.02, -187500.02, -187500.02, -187500.02, -187500.02, -187500.02, 179591.52, 0.000, 0.000, 0.000, 11:01:46.059
99, -187500.02, -187500.02, -187500.02, -187500.02, -187500.02, -187500.02, -187500.02, 179582.94, 0.000, 0.000, 0.000, 11:01:46.059
100, -187500.02, -187500.02, -187500.02, -187500.02, -187500.02, -187500.02, -187500.02, 179569.80, 0.000, 0.000, 0.000, 11:01:46.060
101, -187500.02, -187500.02, -187500.02, -187500.02, -187500.02, -187500.02, -187500.02, 179547.44, 0.000, 0.000, 0.000, 11:01:46.060
102, -187500.02, -187500.02, -187500.02, -187500.02, -187500.02, -187500.02, -187500.02, 179526.03, 0.000, 0.000, 0.000, 11:01:46.060
103, -187500.02, -187500.02, -187500.02, -187500.02, -187500.02, -187500.02, -187500.02, 179507.02, 0.000, 0.000, 0.000, 11:01:46.060
104, -187500.02, -187500.02, -187500.02, -187500.02, -187500.02, -187500.02, -187500.02, 179493.86, 0.000, 0.000, 0.000, 11:01:46.500
105, -187500.02, -187500.02, -187500.02, -187500.02, -187500.02, -187500.02, -187500.02, 179483.89, -0.114, 0.810, 0.590, 11:01:46.500
106, -187500.02, -187500.02, -187500.02, -187500.02, -187500.02, -187500.02, -187500.02, 179476.98, 0.000, 0.000, 0.000, 11:01:46.501
107, -187500.02, -187500.02, -187500.02, -187500.02, -187500.02, -187500.02, -187500.02, 179470.73, 0.000, 0.000, 0.000, 11:01:46.501
108, -187500.02, -187500.02, -187500.02, -187500.02, -187500.02, -187500.02, -187500.02, 179463.78, 0.000, 0.000, 0.000, 11:01:46.502
109, -187500.02, -187500.02, -187500.02, -187500.02, -187500.02, -187500.02, -187500.02, 179460.00, 0.000, 0.000, 0.000, 11:01:46.502
110, -187500.02, -187500.02, -187500.02, -187500.02, -187500.02, -187500.02, -187500.02, 179460.50, 0.000, 0.000, 0.000, 11:01:46.503
111, -187500.02, -187500.02, -187500.02, -187500.02, -187500.02, -187500.02, -187500.02, 179462.02, 0.000, 0.000, 0.000, 11:01:46.503
112, -187500.02, -187500.02, -187500.02, -187500.02, -187500.02, -187500.02, -187500.02, 179461.22, 0.000, 0.000, 0.000, 11:01:46.503
113, -187500.02, -187500.02, -187500.02, -187500.02, -187500.02, -187500.02, -187500.02, 179464.16, 0.000, 0.000, 0.000, 11:01:46.503
114, -187500.02, -187500.02, -187500.02, -187500.02, -187500.02, -187500.02, -187500.02, 179474.52, 0.000, 0.000, 0.000, 11:01:46.504
115, -187500.02, -187500.02, -187500.02, -187500.02, -187500.02, -187500.02, -187500.02, 179487.55, -0.070, 0.830, 0.578, 11:01:46.504
116, -187500.02, -187500.02, -187500.02, -187500.02, -187500.02, -187500.02, -187500.02, 179504.89, 0.000, 0.000, 0.000, 11:01:46.505
117, -187500.02, -187500.02, -187500.02, -187500.02, -187500.02, -187500.02, -187500.02, 179527.84, 0.000, 0.000, 0.000, 11:01:46.506
118, -187500.02, -187500.02, -187500.02, -187500.02, -187500.02, -187500.02, -187500.02, 179564.05, 0.000, 0.000, 0.000, 11:01:46.506
119, -187500.02, -187500.02, -187500.02, -187500.02, -187500.02, -187500.02, -187500.02, 179612.53, 0.000, 0.000, 0.000, 11:01:46.506
120, -187500.02, -187500.02, -187500.02, -187500.02, -187500.02, -187500.02, -187500.02, 179663.27, 0.000, 0.000, 0.000, 11:01:46.506
121, -187500.02, -187500.02, -187500.02, -187500.02, -187500.02, -187500.02, -187500.02, 179707.73, 0.000, 0.000, 0.000, 11:01:46.507
122, -187500.02, -187500.02, -187500.02, -187500.02, -187500.02, -187500.02, -187500.02, 179743.06, 0.000, 0.000, 0.000, 11:01:46.507
123, -187500.02, -187500.02, -187500.02, -187500.02, -187500.02, -187500.02, -187500.02, 179773.44, 0.000, 0.000, 0.000, 11:01:46.507
124, -187500.02, -187500.02, -187500.02, -187500.02, -187500.02, -187500.02, -187500.02, 179792.69, 0.000, 0.000, 0.000, 11:01:46.508
125, -187500.02, -187500.02, -187500.02, -187500.02, -187500.02, -187500.02, -187500.02, 179801.20, -0.050, 0.834, 0.560, 11:01:46.508
126, -187500.02, -187500.02, -187500.02, -187500.02, -187500.02, -187500.02, -187500.02, 179802.05, 0.000, 0.000, 0.000, 11:01:46.508
127, -187500.02, -187500.02, -187500.02, -187500.02, -187500.02, -187500.02, -187500.02, 179798.16, 0.000, 0.000, 0.000, 11:01:46.509
128, -187500.02, -187500.02, -187500.02, -187500.02, -187500.02, -187500.02, -187500.02, 179790.03, 0.000, 0.000, 0.000, 11:01:46.509
129, -187500.02, -187500.02, -187500.02, -187500.02, -187500.02, -187500.02, -187500.02, 179776.11, 0.000, 0.000, 0.000, 11:01:46.510
130, -187500.02, -187500.02, -187500.02, -187500.02, -187500.02, -187500.02, -187500.02, 179762.72, 0.000, 0.000, 0.000, 11:01:46.510
131, -187500.02, -187500.02, -187500.02, -187500.02, -187500.02, -187500.02, -187500.02, 179748.44, 0.000, 0.000, 0.000, 11:01:46.510
132, -187500.02, -187500.02, -187500.02, -187500.02, -187500.02, -187500.02, -187500.02, 179734.80, 0.000, 0.000, 0.000, 11:01:46.511
133, -187500.02, -187500.02, -187500.02, -187500.02, -187500.02, -187500.02, -187500.02, 179725.98, 0.000, 0.000, 0.000, 11:01:46.511
134, -187500.02, -187500.02, -187500.02, -187500.02, -187500.02, -187500.02, -187500.02, 179716.72, 0.000, 0.000, 0.000, 11:01:46.512
135, -187500.02, -187500.02, -187500.02, -187500.02, -187500.02, -187500.02, -187500.02, 179708.89, -0.034, 0.850, 0.542, 11:01:46.514
136, -187500.02, -187500.02, -187500.02, -187500.02, -187500.02, -187500.02, -187500.02, 179702.45, 0.000, 0.000, 0.000, 11:01:46.514
137, -187500.02, -187500.02, -187500.02, -187500.02, -187500.02, -187500.02, -187500.02, 179695.41, 0.000, 0.000, 0.000, 11:01:46.520
138, -187500.02, -187500.02, -187500.02, -187500.02, -187500.02, -187500.02, -187500.02, 179687.56, 0.000, 0.000, 0.000, 11:01:46.520
139, -187500.02, -187500.02, -187500.02, -187500.02, -187500.02, -187500.02, -187500.02, 179679.66, 0.000, 0.000, 0.000, 11:01:46.520
140, -187500.02, -187500.02, -187500.02, -187500.02, -187500.02, -187500.02, -187500.02, 179673.17, 0.000, 0.000, 0.000, 11:01:46.521
141, -187500.02, -187500.02, -187500.02, -187500.02, -187500.02, -187500.02, -187500.02, 179668.44, 0.000, 0.000, 0.000, 11:01:46.521
142, -187500.02, -187500.02, -187500.02, -187500.02, -187500.02, -187500.02, -187500.02, 179663.31, 0.000, 0.000, 0.000, 11:01:46.522
143, -187500.02, -187500.02, -187500.02, -187500.02, -187500.02, -187500.02, -187500.02, 179660.86, 0.000, 0.000, 0.000, 11:01:46.523
144, -187500.02, -187500.02, -187500.02, -187500.02, -187500.02, -187500.02, -187500.02, 179662.33, 0.000, 0.000, 0.000, 11:01:46.523
145, -187500.02, -187500.02, -187500.02, -187500.02, -187500.02, -187500.02, -187500.02, 179663.11, -0.028, 0.864, 0.538, 11:01:46.523
146, -187500.02, -187500.02, -187500.02, -187500.02, -187500.02, -187500.02, -187500.02, 179667.70, 0.000, 0.000, 0.000, 11:01:46.524
147, -187500.02, -187500.02, -187500.02, -187500.02, -187500.02, -187500.02, -187500.02, 179673.02, 0.000, 0.000, 0.000, 11:01:46.524
148, -187500.02, -187500.02, -187500.02, -187500.02, -187500.02, -187500.02, -187500.02, 179679.98, 0.000, 0.000, 0.000, 11:01:46.524
149, -187500.02, -187500.02, -187500.02, -187500.02, -187500.02, -187500.02, -187500.02, 179689.94, 0.000, 0.000, 0.000, 11:01:46.524
150, -187500.02, -187500.02, -187500.02, -187500.02, -187500.02, -187500.02, -187500.02, 179700.22, 0.000, 0.000, 0.000, 11:01:46.525
151, -187500.02, -187500.02, -187500.02, -187500.02, -187500.02, -187500.02, -187500.02, 179714.56, 0.000, 0.000, 0.000, 11:01:46.525
152, -187500.02, -187500.02, -187500.02, -187500.02, -187500.02, -187500.02, -187500.02, 179734.91, 0.000, 0.000, 0.000, 11:01:46.525
153, -187500.02, -187500.02, -187500.02, -187500.02, -187500.02, -187500.02, -187500.02, 179755.73, 0.000, 0.000, 0.000, 11:01:46.526
154, -187500.02, -187500.02, -187500.02, -187500.02, -187500.02, -187500.02, -187500.02, 179773.80, 0.000, 0.000, 0.000, 11:01:46.526
155, -187500.02, -187500.02, -187500.02, -187500.02, -187500.02, -187500.02, -187500.02, 179768.45, -0.010, 0.872, 0.538, 11:01:46.526
156, -187500.02, -187500.02, -187500.02, -187500.02, -187500.02, -187500.02, -187500.02, 179759.50, 0.000, 0.000, 0.000, 11:01:46.527
157, -187500.02, -187500.02, -187500.02, -187500.02, -187500.02, -187500.02, -187500.02, 179770.14, 0.000, 0.000, 0.000, 11:01:46.527
158, -187500.02, -187500.02, -187500.02, -187500.02, -187500.02, -187500.02, -187500.02, 179774.88, 0.000, 0.000, 0.000, 11:01:46.527
159, -187500.02, -187500.02, -187500.02, -187500.02, -187500.02, -187500.02, -187500.02, 179762.89, 0.000, 0.000, 0.000, 11:01:46.528
160, -187500.02, -187500.02, -187500.02, -187500.02, -187500.02, -187500.02, -187500.02, 179757.94, 0.000, 0.000, 0.000, 11:01:46.528
161, -187500.02, -187500.02, -187500.02, -187500.02, -187500.02, -187500.02, -187500.02, 179748.66, 0.000, 0.000, 0.000, 11:01:46.528
162, -187500.02, -187500.02, -187500.02, -187500.02, -187500.02, -187500.02, -187500.02, 179733.09, 0.000, 0.000, 0.000, 11:01:46.528
163, -187500.02, -187500.02, -187500.02, -187500.02, -187500.02, -187500.02, -187500.02, 179715.39, 0.000, 0.000, 0.000, 11:01:46.529
164, -187500.02, -187500.02, -187500.02, -187500.02, -187500.02, -187500.02, -187500.02, 179702.08, 0.000, 0.000, 0.000, 11:01:46.529
165, -187500.02, -187500.02, -187500.02, -187500.02, -187500.02, -187500.02, -187500.02, 179691.17, -0.010, 0.872, 0.548, 11:01:46.529
166, -187500.02, -187500.02, -187500.02, -187500.02, -187500.02, -187500.02, -187500.02, 179684.53, 0.000, 0.000, 0.000, 11:01:46.530
167, -187500.02, -187500.02, -187500.02, -187500.02, -187500.02, -187500.02, -187500.02, 179691.34, 0.000, 0.000, 0.000, 11:01:46.530
168, -187500.02, -187500.02, -187500.02, -187500.02, -187500.02, -187500.02, -187500.02, 179704.36, 0.000, 0.000, 0.000, 11:01:46.530
169, -187500.02, -187500.02, -187500.02, -187500.02, -187500.02, -187500.02, -187500.02, 179718.22, 0.000, 0.000, 0.000, 11:01:46.531
170, -187500.02, -187500.02, -187500.02, -187500.02, -187500.02, -187500.02, -187500.02, 179729.56, 0.000, 0.000, 0.000, 11:01:46.531
171, -187500.02, -187500.02, -187500.02, -187500.02, -187500.02, -187500.02, -187500.02, 179736.11, 0.000, 0.000, 0.000, 11:01:46.531
172, -187500.02, -187500.02, -187500.02, -187500.02, -187500.02, -187500.02, -187500.02, 179746.80, 0.000, 0.000, 0.000, 11:01:46.532
173, -187500.02, -187500.02, -187500.02, -187500.02, -187500.02, -187500.02, -187500.02, 179762.02, 0.000, 0.000, 0.000, 11:01:46.532
174, -187500.02, -187500.02, -187500.02, -187500.02, -187500.02, -187500.02, -187500.02, 179779.72, 0.000, 0.000, 0.000, 11:01:46.532
175, -187500.02, -187500.02, -187500.02, -187500.02, -187500.02, -187500.02, -187500.02, 179804.59, -0.008, 0.876, 0.562, 11:01:46.533
176, -187500.02, -187500.02, -187500.02, -187500.02, -187500.02, -187500.02, -187500.02, 179834.78, 0.000, 0.000, 0.000, 11:01:46.533
177, -187500.02, -187500.02, -187500.02, -187500.02, -187500.02, -187500.02, -187500.02, 179879.53, 0.000, 0.000, 0.000, 11:01:46.533
178, -187500.02, -187500.02, -187500.02, -187500.02, -187500.02, -187500.02, -187500.02, 179929.22, 0.000, 0.000, 0.000, 11:01:46.534
179, -187500.02, -187500.02, -187500.02, -187500.02, -187500.02, -187500.02, -187500.02, 179937.42, 0.000, 0.000, 0.000, 11:01:46.534
180, -187500.02, -187500.02, -187500.02, -187500.02, -187500.02, -187500.02, -187500.02, 179935.31, 0.000, 0.000, 0.000, 11:01:46.534
181, -187500.02, -187500.02, -187500.02, -187500.02, -187500.02, -187500.02, -187500.02, 179942.52, 0.000, 0.000, 0.000, 11:01:46.535
182, -187500.02, -187500.02, -187500.02, -187500.02, -187500.02, -187500.02, -187500.02, 179937.23, 0.000, 0.000, 0.000, 11:01:46.535
183, -187500.02, -187500.02, -187500.02, -187500.02, -187500.02, -187500.02, -187500.02, 179918.64, 0.000, 0.000, 0.000, 11:01:46.535
184, -187500.02, -187500.02, -187500.02, -187500.02, -187500.02, -187500.02, -187500.02, 179900.61, -0.018, 0.864, 0.580, 11:01:46.536
185, -187500.02, -187500.02, -187500.02, -187500.02, -187500.02, -187500.02, -187500.02, 179885.83, 0.000, 0.000, 0.000, 11:01:46.536
186, -187500.02, -187500.02, -187500.02, -187500.02, -187500.02, -187500.02, -187500.02, 179871.95, 0.000, 0.000, 0.000, 11:01:46.536
187, -187500.02, -187500.02, -187500.02, -187500.02, -187500.02, -187500.02, -187500.02, 179866.03, 0.000, 0.000, 0.000, 11:01:46.536
188, -187500.02, -187500.02, -187500.02, -187500.02, -187500.02, -187500.02, -187500.02, 179859.63, 0.000, 0.000, 0.000, 11:01:46.537
189, -187500.02, -187500.02, -187500.02, -187500.02, -187500.02, -187500.02, -187500.02, 179855.97, 0.000, 0.000, 0.000, 11:01:46.537
190, -187500.02, -187500.02, -187500.02, -187500.02, -187500.02, -187500.02, -187500.02, 179857.28, 0.000, 0.000, 0.000, 11:01:46.537
191, -187500.02, -187500.02, -187500.02, -187500.02, -187500.02, -187500.02, -187500.02, 179853.39, 0.000, 0.000, 0.000, 11:01:46.539
192, -187500.02, -187500.02, -187500.02, -187500.02, -187500.02, -187500.02, -187500.02, 179850.69, 0.000, 0.000, 0.000, 11:01:46.540
193, -187500.02, -187500.02, -187500.02, -187500.02, -187500.02, -187500.02, -187500.02, 179848.09, 0.000, 0.000, 0.000, 11:01:46.540
194, -187500.02, -187500.02, -187500.02, -187500.02, -187500.02, -187500.02, -187500.02, 179843.61, -0.036, 0.820, 0.590, 11:01:46.541
195, -187500.02, -187500.02, -187500.02, -187500.02, -187500.02, -187500.02, -187500.02, 179834.44, 0.000, 0.000, 0.000, 11:01:46.541
196, -187500.02, -187500.02, -187500.02, -187500.02, -187500.02, -187500.02, -187500.02, 179829.19, 0.000, 0.000, 0.000, 11:01:46.541
197, -187500.02, -187500.02, -187500.02, -187500.02, -187500.02, -187500.02, -187500.02, 179827.00, 0.000, 0.000, 0.000, 11:01:46.542
198, -187500.02, -187500.02, -187500.02, -187500.02, -187500.02, -187500.02, -187500.02, 179831.72, 0.000, 0.000, 0.000, 11:01:46.542
199, -187500.02, -187500.02, -187500.02, -187500.02, -187500.02, -187500.02, -187500.02, 179849.81, 0.000, 0.000, 0.000, 11:01:46.542
200, -187500.02, -187500.02, -187500.02, -187500.02, -187500.02, -187500.02, -187500.02, 179876.64, 0.000, 0.000, 0.000, 11:01:46.542
201, -187500.02, -187500.02, -187500.02, -187500.02, -187500.02, -187500.02, -187500.02, 179920.39, 0.000, 0.000, 0.000, 11:01:46.543
202, -187500.02, -187500.02, -187500.02, -187500.02, -187500.02, -187500.02, -187500.02, 179987.39, 0.000, 0.000, 0.000, 11:01:46.543
203, -187500.02, -187500.02, -187500.02, -187500.02, -187500.02, -187500.02, -187500.02, 180088.27, 0.000, 0.000, 0.000, 11:01:46.544
204, -187500.02, -187500.02, -187500.02, -187500.02, -187500.02, -187500.02, -187500.02, 180238.34, -0.052, 0.810, 0.618, 11:01:46.544
205, -187500.02, -187500.02, -187500.02, -187500.02, -187500.02, -187500.02, -187500.02, 180318.84, 0.000, 0.000, 0.000, 11:01:46.544
206, -187500.02, -187500.02, -187500.02, -187500.02, -187500.02, -187500.02, -187500.02, 180353.25, 0.000, 0.000, 0.000, 11:01:46.545
207, -187500.02, -187500.02, -187500.02, -187500.02, -187500.02, -187500.02, -187500.02, 180374.13, 0.000, 0.000, 0.000, 11:01:46.545
208, -187500.02, -187500.02, -187500.02, -187500.02, -187500.02, -187500.02, -187500.02, 180389.36, 0.000, 0.000, 0.000, 11:01:46.545
209, -187500.02, -187500.02, -187500.02, -187500.02, -187500.02, -187500.02, -187500.02, 180403.77, 0.000, 0.000, 0.000, 11:01:46.546
210, -187500.02, -187500.02, -187500.02, -187500.02, -187500.02, -187500.02, -187500.02, 180412.86, 0.000, 0.000, 0.000, 11:01:46.546
211, -187500.02, -187500.02, -187500.02, -187500.02, -187500.02, -187500.02, -187500.02, 180425.11, 0.000, 0.000, 0.000, 11:01:46.546
212, -187500.02, -187500.02, -187500.02, -187500.02, -187500.02, -187500.02, -187500.02, 180429.64, 0.000, 0.000, 0.000, 11:01:46.546
213, -187500.02, -187500.02, -187500.02, -187500.02, -187500.02, -187500.02, -187500.02, 180430.70, 0.000, 0.000, 0.000, 11:01:46.547
214, -187500.02, -187500.02, -187500.02, -187500.02, -187500.02, -187500.02, -187500.02, 180431.59, -0.070, 0.792, 0.636, 11:01:46.547
215, -187500.02, -187500.02, -187500.02, -187500.02, -187500.02, -187500.02, -187500.02, 180428.03, 0.000, 0.000, 0.000, 11:01:46.547
216, -187500.02, -187500.02, -187500.02, -187500.02, -187500.02, -187500.02, -187500.02, 180420.95, 0.000, 0.000, 0.000, 11:01:46.548
217, -187500.02, -187500.02, -187500.02, -187500.02, -187500.02, -187500.02, -187500.02, 180415.11, 0.000, 0.000, 0.000, 11:01:46.548
218, -187500.02, -187500.02, -187500.02, -187500.02, -187500.02, -187500.02, -187500.02, 180410.06, 0.000, 0.000, 0.000, 11:01:46.548
219, -187500.02, -187500.02, -187500.02, -187500.02, -187500.02, -187500.02, -187500.02, 180409.38, 0.000, 0.000, 0.000, 11:01:46.549
220, -187500.02, -187500.02, -187500.02, -187500.02, -187500.02, -187500.02, -187500.02, 180412.05, 0.000, 0.000, 0.000, 11:01:46.549
221, -187500.02, -187500.02, -187500.02, -187500.02, -187500.02, -187500.02, -187500.02, 180419.70, 0.000, 0.000, 0.000, 11:01:46.549
222, -187500.02, -187500.02, -187500.02, -187500.02, -187500.02, -187500.02, -187500.02, 180435.36, 0.000, 0.000, 0.000, 11:01:46.549
223, -187500.02, -187500.02, -187500.02, -187500.02, -187500.02, -187500.02, -187500.02, 180453.36, 0.000, 0.000, 0.000, 11:01:46.550
224, -187500.02, -187500.02, -187500.02, -187500.02, -187500.02, -187500.02, -187500.02, 180473.41, -0.092, 0.772, 0.648, 11:01:46.979
225, -187500.02, -187500.02, -187500.02, -187500.02, -187500.02, -187500.02, -187500.02, 180502.64, 0.000, 0.000, 0.000, 11:01:46.979
226, -187500.02, -187500.02, -187500.02, -187500.02, -187500.02, -187500.02, -187500.02, 180526.56, 0.000, 0.000, 0.000, 11:01:46.979
227, -187500.02, -187500.02, -187500.02, -187500.02, -187500.02, -187500.02, -187500.02, 180546.56, 0.000, 0.000, 0.000, 11:01:46.979
228, -187500.02, -187500.02, -187500.02, -187500.02, -187500.02, -187500.02, -187500.02, 180566.17, 0.000, 0.000, 0.000, 11:01:46.980
229, -187500.02, -187500.02, -187500.02, -187500.02, -187500.02, -187500.02, -187500.02, 180583.67, 0.000, 0.000, 0.000, 11:01:46.980
230, -187500.02, -187500.02, -187500.02, -187500.02, -187500.02, -187500.02, -187500.02, 180601.02, 0.000, 0.000, 0.000, 11:01:46.980
231, -187500.02, -187500.02, -187500.02, -187500.02, -187500.02, -187500.02, -187500.02, 180615.56, 0.000, 0.000, 0.000, 11:01:46.980
232, -187500.02, -187500.02, -187500.02, -187500.02, -187500.02, -187500.02, -187500.02, 180633.63, 0.000, 0.000, 0.000, 11:01:46.980
233, -187500.02, -187500.02, -187500.02, -187500.02, -187500.02, -187500.02, -187500.02, 180657.59, 0.000, 0.000, 0.000, 11:01:46.980
234, -187500.02, -187500.02, -187500.02, -187500.02, -187500.02, -187500.02, -187500.02, 180683.16, -0.090, 0.754, 0.660, 11:01:46.980
235, -187500.02, -187500.02, -187500.02, -187500.02, -187500.02, -187500.02, -187500.02, 180701.75, 0.000, 0.000, 0.000, 11:01:46.980
236, -187500.02, -187500.02, -187500.02, -187500.02, -187500.02, -187500.02, -187500.02, 180703.72, 0.000, 0.000, 0.000, 11:01:46.980
237, -187500.02, -187500.02, -187500.02, -187500.02, -187500.02, -187500.02, -187500.02, 180704.38, 0.000, 0.000, 0.000, 11:01:46.981
238, -187500.02, -187500.02, -187500.02, -187500.02, -187500.02, -187500.02, -187500.02, 180702.30, 0.000, 0.000, 0.000, 11:01:46.981
239, -187500.02, -187500.02, -187500.02, -187500.02, -187500.02, -187500.02, -187500.02, 180698.22, 0.000, 0.000, 0.000, 11:01:46.981
240, -187500.02, -187500.02, -187500.02, -187500.02, -187500.02, -187500.02, -187500.02, 180694.98, 0.000, 0.000, 0.000, 11:01:46.981
241, -187500.02, -187500.02, -187500.02, -187500.02, -187500.02, -187500.02, -187500.02, 180693.38, 0.000, 0.000, 0.000, 11:01:46.981
242, -187500.02, -187500.02, -187500.02, -187500.02, -187500.02, -187500.02, -187500.02, 180691.31, 0.000, 0.000, 0.000, 11:01:46.981
243, -187500.02, -187500.02, -187500.02, -187500.02, -187500.02, -187500.02, -187500.02, 180679.81, 0.000, 0.000, 0.000, 11:01:46.981
244, -187500.02, -187500.02, -187500.02, -187500.02, -187500.02, -187500.02, -187500.02, 180668.89, -0.078, 0.742, 0.672, 11:01:46.981
245, -187500.02, -187500.02, -187500.02, -187500.02, -187500.02, -187500.02, -187500.02, 180653.36, 0.000, 0.000, 0.000, 11:01:46.981
246, -187500.02, -187500.02, -187500.02, -187500.02, -187500.02, -187500.02, -187500.02, 180630.28, 0.000, 0.000, 0.000, 11:01:46.981
247, -187500.02, -187500.02, -187500.02, -187500.02, -187500.02, -187500.02, -187500.02, 180609.00, 0.000, 0.000, 0.000, 11:01:46.982
248, -187500.02, -187500.02, -187500.02, -187500.02, -187500.02, -187500.02, -187500.02, 180603.30, 0.000, 0.000, 0.000, 11:01:46.982
249, -187500.02, -187500.02, -187500.02, -187500.02, -187500.02, -187500.02, -187500.02, 180618.77, 0.000, 0.000, 0.000, 11:01:46.982
250, -187500.02, -187500.02, -187500.02, -187500.02, -187500.02, -187500.02, -187500.02, 180651.80, 0.000, 0.000, 0.000, 11:01:46.982
251, -187500.02, -187500.02, -187500.02, -187500.02, -187500.02, -187500.02, -187500.02, 180681.42, 0.000, 0.000, 0.000, 11:01:46.982
252, -187500.02, -187500.02, -187500.02, -187500.02, -187500.02, -187500.02, -187500.02, 180711.56, 0.000, 0.000, 0.000, 11:01:46.982
253, -187500.02, -187500.02, -187500.02, -187500.02, -187500.02, -187500.02, -187500.02, 180694.89, -0.058, 0.742, 0.678, 11:01:46.983
254, -187500.02, -187500.02, -187500.02, -187500.02, -187500.02, -187500.02, -187500.02, 180666.47, 0.000, 0.000, 0.000, 11:01:46.983
255, -187500.02, -187500.02, -187500.02, -187500.02, -187500.02, -187500.02, -187500.02, 180643.34, 0.000, 0.000, 0.000, 11:01:46.983
0, -187500.02, -187500.02, -187500.02, -187500.02, -187500.02, -187500.02, -187500.02, 180622.72, 0.000, 0.000, 0.000, 11:01:46.983
1, -187500.02, -187500.02, -187500.02, -187500.02, -187500.02, -187500.02, -187500.02, 180596.64, 0.000, 0.000, 0.000, 11:01:46.983
2, -187500.02, -187500.02, -187500.02, -187500.02, -187500.02, -187500.02, -187500.02, 180560.83, 0.000, 0.000, 0.000, 11:01:46.983
3, -187500.02, -187500.02, -187500.02, -187500.02, -187500.02, -187500.02, -187500.02, 180512.56, 0.000, 0.000, 0.000, 11:01:46.983
4, -187500.02, -187500.02, -187500.02, -187500.02, -187500.02, -187500.02, -187500.02, 180451.42, 0.000, 0.000, 0.000, 11:01:46.983
5, -187500.02, -187500.02, -187500.02, -187500.02, -187500.02, -187500.02, -187500.02, 180385.44, 0.000, 0.000, 0.000, 11:01:46.984
6, -187500.02, -187500.02, -187500.02, -187500.02, -187500.02, -187500.02, -187500.02, 180322.89, 0.000, 0.000, 0.000, 11:01:46.984
7, -187500.02, -187500.02, -187500.02, -187500.02, -187500.02, -187500.02, -187500.02, 180267.11, -0.030, 0.764, 0.676, 11:01:46.984
8, -187500.02, -187500.02, -187500.02, -187500.02, -187500.02, -187500.02, -187500.02, 180224.84, 0.000, 0.000, 0.000, 11:01:46.984
9, -187500.02, -187500.02, -187500.02, -187500.02, -187500.02, -187500.02, -187500.02, 180199.11, 0.000, 0.000, 0.000, 11:01:46.984
10, -187500.02, -187500.02, -187500.02, -187500.02, -187500.02, -187500.02, -187500.02, 180184.09, 0.000, 0.000, 0.000, 11:01:46.984
11, -187500.02, -187500.02, -187500.02, -187500.02, -187500.02, -187500.02, -187500.02, 180177.20, 0.000, 0.000, 0.000, 11:01:46.984
12, -187500.02, -187500.02, -187500.02, -187500.02, -187500.02, -187500.02, -187500.02, 180175.81, 0.000, 0.000, 0.000, 11:01:46.984
13, -187500.02, -187500.02, -187500.02, -187500.02, -187500.02, -187500.02, -187500.02, 180181.08, 0.000, 0.000, 0.000, 11:01:46.984
14, -187500.02, -187500.02, -187500.02, -187500.02, -187500.02, -187500.02, -187500.02, 180189.67, 0.000, 0.000, 0.000, 11:01:46.984
15, -187500.02, -187500.02, -187500.02, -187500.02, -187500.02, -187500.02, -187500.02, 180201.97, 0.000, 0.000, 0.000, 11:01:46.985
16, -187500.02, -187500.02, -187500.02, -187500.02, -187500.02, -187500.02, -187500.02, 180219.97, 0.000, 0.000, 0.000, 11:01:46.985
17, -187500.02, -187500.02, -187500.02, -187500.02, -187500.02, -187500.02, -187500.02, 180241.95, -0.002, 0.766, 0.640, 11:01:46.985
18, -187500.02, -187500.02, -187500.02, -187500.02, -187500.02, -187500.02, -187500.02, 180263.27, 0.000, 0.000, 0.000, 11:01:46.985
19, -187500.02, -187500.02, -187500.02, -187500.02, -187500.02, -187500.02, -187500.02, 180289.03, 0.000, 0.000, 0.000, 11:01:46.985
20, -187500.02, -187500.02, -187500.02, -187500.02, -187500.02, -187500.02, -187500.02, 180326.38, 0.000, 0.000, 0.000, 11:01:46.985
21, -187500.02, -187500.02, -187500.02, -187500.02, -187500.02, -187500.02, -187500.02, 180384.83, 0.000, 0.000, 0.000, 11:01:46.985
22, -187500.02, -187500.02, -187500.02, -187500.02, -187500.02, -187500.02, -187500.02, 180472.73, 0.000, 0.000, 0.000, 11:01:46.985
23, -187500.02, -187500.02, -187500.02, -187500.02, -187500.02, -187500.02, -187500.02, 180591.38, 0.000, 0.000, 0.000, 11:01:46.985
24, -187500.02, -187500.02, -187500.02, -187500.02, -187500.02, -187500.02, -187500.02, 180709.47, 0.000, 0.000, 0.000, 11:01:46.986
25, -187500.02, -187500.02, -187500.02, -187500.02, -187500.02, -187500.02, -187500.02, 180820.00, 0.000, 0.000, 0.000, 11:01:46.986
26, -187500.02, -187500.02, -187500.02, -187500.02, -187500.02, -187500.02, -187500.02, 180932.17, 0.000, 0.000, 0.000, 11:01:46.986
27, -187500.02, -187500.02, -187500.02, -187500.02, -187500.02, -187500.02, -187500.02, 181025.36, 0.014, 0.792, 0.620, 11:01:46.986
28, -187500.02, -187500.02, -187500.02, -187500.02, -187500.02, -187500.02, -187500.02, 181090.77, 0.000, 0.000, 0.000, 11:01:46.986
29, -187500.02, -187500.02, -187500.02, -187500.02, -187500.02, -187500.02, -187500.02, 181149.61, 0.000, 0.000, 0.000, 11:01:46.986
30, -187500.02, -187500.02, -187500.02, -187500.02, -187500.02, -187500.02, -187500.02, 181205.91, 0.000, 0.000, 0.000, 11:01:46.986
31, -187500.02, -187500.02, -187500.02, -187500.02, -187500.02, -187500.02, -187500.02, 181258.84, 0.000, 0.000, 0.000, 11:01:46.987
32, -187500.02, -187500.02, -187500.02, -187500.02, -187500.02, -187500.02, -187500.02, 181314.53, 0.000, 0.000, 0.000, 11:01:46.987
33, -187500.02, -187500.02, -187500.02, -187500.02, -187500.02, -187500.02, -187500.02, 181376.64, 0.000, 0.000, 0.000, 11:01:46.987
34, -187500.02, -187500.02, -187500.02, -187500.02, -187500.02, -187500.02, -187500.02, 181445.23, 0.000, 0.000, 0.000, 11:01:46.987
35, -187500.02, -187500.02, -187500.02, -187500.02, -187500.02, -187500.02, -187500.02, 181522.78, 0.000, 0.000, 0.000, 11:01:46.987
36, -187500.02, -187500.02, -187500.02, -187500.02, -187500.02, -187500.02, -187500.02, 181612.56, 0.000, 0.000, 0.000, 11:01:46.988
37, -187500.02, -187500.02, -187500.02, -187500.02, -187500.02, -187500.02, -187500.02, 181704.03, 0.010, 0.820, 0.606, 11:01:46.988
38, -187500.02, -187500.02, -187500.02, -187500.02, -187500.02, -187500.02, -187500.02, 181782.58, 0.000, 0.000, 0.000, 11:01:46.988
39, -187500.02, -187500.02, -187500.02, -187500.02, -187500.02, -187500.02, -187500.02, 181853.63, 0.000, 0.000, 0.000, 11:01:46.988
40, -187500.02, -187500.02, -187500.02, -187500.02, -187500.02, -187500.02, -187500.02, 181915.33, 0.000, 0.000, 0.000, 11:01:46.989
41, -187500.02, -187500.02, -187500.02, -187500.02, -187500.02, -187500.02, -187500.02, 181965.08, 0.000, 0.000, 0.000, 11:01:46.989
42, -187500.02, -187500.02, -187500.02, -187500.02, -187500.02, -187500.02, -187500.02, 182007.81, 0.000, 0.000, 0.000, 11:01:46.989
43, -187500.02, -187500.02, -187500.02, -187500.02, -187500.02, -187500.02, -187500.02, 182037.16, 0.000, 0.000, 0.000, 11:01:46.989
44, -187500.02, -187500.02, -187500.02, -187500.02, -187500.02, -187500.02, -187500.02, 182057.52, 0.000, 0.000, 0.000, 11:01:46.989
45, -187500.02, -187500.02, -187500.02, -187500.02, -187500.02, -187500.02, -187500.02, 182067.22, 0.000, 0.000, 0.000, 11:01:46.989
46, -187500.02, -187500.02, -187500.02, -187500.02, -187500.02, -187500.02, -187500.02, 182073.66, 0.000, 0.000, 0.000, 11:01:46.989
47, -187500.02, -187500.02, -187500.02, -187500.02, -187500.02, -187500.02, -187500.02, 182067.31, 0.002, 0.832, 0.584, 11:01:46.989
48, -187500.02, -187500.02, -187500.02, -187500.02, -187500.02, -187500.02, -187500.02, 182041.34, 0.000, 0.000, 0.000, 11:01:46.990
49, -187500.02, -187500.02, -187500.02, -187500.02, -187500.02, -187500.02, -187500.02, 182002.83, 0.000, 0.000, 0.000, 11:01:46.990
50, -187500.02, -187500.02, -187500.02, -187500.02, -187500.02, -187500.02, -187500.02, 181964.73, 0.000, 0.000, 0.000, 11:01:46.990
51, -187500.02, -187500.02, -187500.02, -187500.02, -187500.02, -187500.02, -187500.02, 181921.16, 0.000, 0.000, 0.000, 11:01:46.990
52, -187500.02, -187500.02, -187500.02, -187500.02, -187500.02, -187500.02, -187500.02, 181868.94, 0.000, 0.000, 0.000, 11:01:46.990
53, -187500.02, -187500.02, -187500.02, -187500.02, -187500.02, -187500.02, -187500.02, 181813.64, 0.000, 0.000, 0.000, 11:01:46.990
54, -187500.02, -187500.02, -187500.02, -187500.02, -187500.02, -187500.02, -187500.02, 181753.27, 0.000, 0.000, 0.000, 11:01:46.990
55, -187500.02, -187500.02, -187500.02, -187500.02, -187500.02, -187500.02, -187500.02, 181687.98, 0.000, 0.000, 0.000, 11:01:46.990
56, -187500.02, -187500.02, -187500.02, -187500.02, -187500.02, -187500.02, -187500.02, 181611.25, 0.000, 0.000, 0.000, 11:01:46.990
57, -187500.02, -187500.02, -187500.02, -187500.02, -187500.02, -187500.02, -187500.02, 181518.36, 0.000, 0.840, 0.568, 11:01:46.991
58, -187500.02, -187500.02, -187500.02, -187500.02, -187500.02, -187500.02, -187500.02, 181405.45, 0.000, 0.000, 0.000, 11:01:46.991
59, -187500.02, -187500.02, -187500.02, -187500.02, -187500.02, -187500.02, -187500.02, 181274.00, 0.000, 0.000, 0.000, 11:01:46.991
60, -187500.02, -187500.02, -187500.02, -187500.02, -187500.02, -187500.02, -187500.02, 181134.42, 0.000, 0.000, 0.000, 11:01:46.991
61, -187500.02, -187500.02, -187500.02, -187500.02, -187500.02, -187500.02, -187500.02, 180997.09, 0.000, 0.000, 0.000, 11:01:46.991
62, -187500.02, -187500.02, -187500.02, -187500.02, -187500.02, -187500.02, -187500.02, 180867.14, 0.000, 0.000, 0.000, 11:01:46.991
63, -187500.02, -187500.02, -187500.02, -187500.02, -187500.02, -187500.02, -187500.02, 180743.98, 0.000, 0.000, 0.000, 11:01:46.991
64, -187500.02, -187500.02, -187500.02, -187500.02, -187500.02, -187500.02, -187500.02, 180620.50, 0.000, 0.000, 0.000, 11:01:46.991
65, -187500.02, -187500.02, -187500.02, -187500.02, -187500.02, -187500.02, -187500.02, 180494.20, 0.000, 0.000, 0.000, 11:01:46.992
66, -187500.02, -187500.02, -187500.02, -187500.02, -187500.02, -187500.02, -187500.02, 180369.23, -0.026, 0.854, 0.570, 11:01:46.992
67, -187500.02, -187500.02, -187500.02, -187500.02, -187500.02, -187500.02, -187500.02, 180239.70, 0.000, 0.000, 0.000, 11:01:46.992
68, -187500.02, -187500.02, -187500.02, -187500.02, -187500.02, -187500.02, -187500.02, 180105.41, 0.000, 0.000, 0.000, 11:01:46.992
69, -187500.02, -187500.02, -187500.02, -187500.02, -187500.02, -187500.02, -187500.02, 179968.70, 0.000, 0.000, 0.000, 11:01:46.992
70, -187500.02, -187500.02, -187500.02, -187500.02, -187500.02, -187500.02, -187500.02, 179821.47, 0.000, 0.000, 0.000, 11:01:46.992
71, -187500.02, -187500.02, -187500.02, -187500.02, -187500.02, -187500.02, -187500.02, 179665.97, 0.000, 0.000, 0.000, 11:01:46.992
72, -187500.02, -187500.02, -187500.02, -187500.02, -187500.02, -187500.02, -187500.02, 179509.36, 0.000, 0.000, 0.000, 11:01:46.992
73, -187500.02, -187500.02, -187500.02, -187500.02, -187500.02, -187500.02, -187500.02, 179352.02, 0.000, 0.000, 0.000, 11:01:46.992
74, -187500.02, -187500.02, -187500.02, -187500.02, -187500.02, -187500.02, -187500.02, 179209.39, 0.000, 0.000, 0.000, 11:01:46.993
75, -187500.02, -187500.02, -187500.02, -187500.02, -187500.02, -187500.02, -187500.02, 179080.11, 0.000, 0.000, 0.000, 11:01:46.993
76, -187500.02, -187500.02, -187500.02, -187500.02, -187500.02, -187500.02, -187500.02, 178947.70, -0.050, 0.866, 0.576, 11:01:46.993
77, -187500.02, -187500.02, -187500.02, -187500.02, -187500.02, -187500.02, -187500.02, 178827.22, 0.000, 0.000, 0.000, 11:01:46.993
78, -187500.02, -187500.02, -187500.02, -187500.02, -187500.02, -187500.02, -187500.02, 178713.39, 0.000, 0.000, 0.000, 11:01:46.993
79, -187500.02, -187500.02, -187500.02, -187500.02, -187500.02, -187500.02, -187500.02, 178611.05, 0.000, 0.000, 0.000, 11:01:46.993
80, -187500.02, -187500.02, -187500.02, -187500.02, -187500.02, -187500.02, -187500.02, 178519.67, 0.000, 0.000, 0.000, 11:01:46.993
81, -187500.02, -187500.02, -187500.02, -187500.02, -187500.02, -187500.02, -187500.02, 178434.94, 0.000, 0.000, 0.000, 11:01:46.993
82, -187500.02, -187500.02, -187500.02, -187500.02, -187500.02, -187500.02, -187500.02, 178352.92, 0.000, 0.000, 0.000, 11:01:46.993
83, -187500.02, -187500.02, -187500.02, -187500.02, -187500.02, -187500.02, -187500.02, 178276.23, 0.000, 0.000, 0.000, 11:01:46.993
84, -187500.02, -187500.02, -187500.02, -187500.02, -187500.02, -187500.02, -187500.02, 178208.00, 0.000, 0.000, 0.000, 11:01:46.993
85, -187500.02, -187500.02, -187500.02, -187500.02, -187500.02, -187500.02, -187500.02, 178140.69, 0.000, 0.000, 0.000, 11:01:46.994
86, -187500.02, -187500.02, -187500.02, -187500.02, -187500.02, -187500.02, -187500.02, 178072.47, -0.068, 0.850, 0.578, 11:01:46.994
87, -187500.02, -187500.02, -187500.02, -187500.02, -187500.02, -187500.02, -187500.02, 178002.72, 0.000, 0.000, 0.000, 11:01:46.994
88, -187500.02, -187500.02, -187500.02, -187500.02, -187500.02, -187500.02, -187500.02, 177930.34, 0.000, 0.000, 0.000, 11:01:46.994
89, -187500.02, -187500.02, -187500.02, -187500.02, -187500.02, -187500.02, -187500.02, 177853.66, 0.000, 0.000, 0.000, 11:01:47.462
90, -187500.02, -187500.02, -187500.02, -187500.02, -187500.02, -187500.02, -187500.02, 177766.75, 0.000, 0.000, 0.000, 11:01:47.462
91, -187500.02, -187500.02, -187500.02, -187500.02, -187500.02, -187500.02, -187500.02, 177666.34, 0.000, 0.000, 0.000, 11:01:47.462
92, -187500.02, -187500.02, -187500.02, -187500.02, -187500.02, -187500.02, -187500.02, 177561.67, 0.000, 0.000, 0.000, 11:01:47.463
93, -187500.02, -187500.02, -187500.02, -187500.02, -187500.02, -187500.02, -187500.02, 177451.19, 0.000, 0.000, 0.000, 11:01:47.463
94, -187500.02, -187500.02, -187500.02, -187500.02, -187500.02, -187500.02, -187500.02, 177335.58, 0.000, 0.000, 0.000, 11:01:47.463
95, -187500.02, -187500.02, -187500.02, -187500.02, -187500.02, -187500.02, -187500.02, 177225.72, 0.000, 0.000, 0.000, 11:01:47.464
96, -187500.02, -187500.02, -187500.02, -187500.02, -187500.02, -187500.02, -187500.02, 177124.84, -0.080, 0.826, 0.578, 11:01:47.464
97, -187500.02, -187500.02, -187500.02, -187500.02, -187500.02, -187500.02, -187500.02, 177035.06, 0.000, 0.000, 0.000, 11:01:47.464
98, -187500.02, -187500.02, -187500.02, -187500.02, -187500.02, -187500.02, -187500.02, 176966.28, 0.000, 0.000, 0.000, 11:01:47.465
99, -187500.02, -187500.02, -187500.02, -187500.02, -187500.02, -187500.02, -187500.02, 176913.47, 0.000, 0.000, 0.000, 11:01:47.465
100, -187500.02, -187500.02, -187500.02, -187500.02, -187500.02, -187500.02, -187500.02, 176857.88, 0.000, 0.000, 0.000, 11:01:47.465
101, -187500.02, -187500.02, -187500.02, -187500.02, -187500.02, -187500.02, -187500.02, 176793.19, 0.000, 0.000, 0.000, 11:01:47.466
102, -187500.02, -187500.02, -187500.02, -187500.02, -187500.02, -187500.02, -187500.02, 176730.50, 0.000, 0.000, 0.000, 11:01:47.466
103, -187500.02, -187500.02, -187500.02, -187500.02, -187500.02, -187500.02, -187500.02, 176662.91, 0.000, 0.000, 0.000, 11:01:47.466
104, -187500.02, -187500.02, -187500.02, -187500.02, -187500.02, -187500.02, -187500.02, 176605.17, 0.000, 0.000, 0.000, 11:01:47.467
105, -187500.02, -187500.02, -187500.02, -187500.02, -187500.02, -187500.02, -187500.02, 176556.92, 0.000, 0.000, 0.000, 11:01:47.467
106, -187500.02, -187500.02, -187500.02, -187500.02, -187500.02, -187500.02, -187500.02, 176511.73, -0.070, 0.822, 0.586, 11:01:47.467
107, -187500.02, -187500.02, -187500.02, -187500.02, -187500.02, -187500.02, -187500.02, 176470.86, 0.000, 0.000, 0.000, 11:01:47.467
108, -187500.02, -187500.02, -187500.02, -187500.02, -187500.02, -187500.02, -187500.02, 176448.78, 0.000, 0.000, 0.000, 11:01:47.468
109, -187500.02, -187500.02, -187500.02, -187500.02, -187500.02, -187500.02, -187500.02, 176458.23, 0.000, 0.000, 0.000, 11:01:47.468
110, -187500.02, -187500.02, -187500.02, -187500.02, -187500.02, -187500.02, -187500.02, 176497.73, 0.000, 0.000, 0.000, 11:01:47.468
111, -187500.02, -187500.02, -187500.02, -187500.02, -187500.02, -187500.02, -187500.02, 176553.03, 0.000, 0.000, 0.000, 11:01:47.469
112, -187500.02, -187500.02, -187500.02, -187500.02, -187500.02, -187500.02, -187500.02, 176615.91, 0.000, 0.000, 0.000, 11:01:47.469
113, -187500.02, -187500.02, -187500.02, -187500.02, -187500.02, -187500.02, -187500.02, 176679.61, 0.000, 0.000, 0.000, 11:01:47.469
114, -187500.02, -187500.02, -187500.02, -187500.02, -187500.02, -187500.02, -187500.02, 176734.86, 0.000, 0.000, 0.000, 11:01:47.469
115, -187500.02, -187500.02, -187500.02, -187500.02, -187500.02, -187500.02, -187500.02, 176775.30, 0.000, 0.000, 0.000, 11:01:47.469
116, -187500.02, -187500.02, -187500.02, -187500.02, -187500.02, -187500.02, -187500.02, 176801.39, -0.066, 0.826, 0.590, 11:01:47.470
117, -187500.02, -187500.02, -187500.02, -187500.02, -187500.02, -187500.02, -187500.02, 176815.34, 0.000, 0.000, 0.000, 11:01:47.470
118, -187500.02, -187500.02, -187500.02, -187500.02, -187500.02, -187500.02, -187500.02, 176821.50, 0.000, 0.000, 0.000, 11:01:47.470
119, -187500.02, -187500.02, -187500.02, -187500.02, -187500.02, -187500.02, -187500.02, 176832.27, 0.000, 0.000, 0.000, 11:01:47.471
120, -187500.02, -187500.02, -187500.02, -187500.02, -187500.02, -187500.02, -187500.02, 176832.48, 0.000, 0.000, 0.000, 11:01:47.471
121, -187500.02, -187500.02, -187500.02, -187500.02, -187500.02, -187500.02, -187500.02, 176827.84, 0.000, 0.000, 0.000, 11:01:47.471
122, -187500.02, -187500.02, -187500.02, -187500.02, -187500.02, -187500.02, -187500.02, 176820.63, 0.000, 0.000, 0.000, 11:01:47.472
123, -187500.02, -187500.02, -187500.02, -187500.02, -187500.02, -187500.02, -187500.02, 176809.78, 0.000, 0.000, 0.000, 11:01:47.472
124, -187500.02, -187500.02, -187500.02, -187500.02, -187500.02, -187500.02, -187500.02, 176794.47, 0.000, 0.000, 0.000, 11:01:47.473
125, -187500.02, -187500.02, -187500.02, -187500.02, -187500.02, -187500.02, -187500.02, 176775.45, 0.000, 0.000, 0.000, 11:01:47.473
126, -187500.02, -187500.02, -187500.02, -187500.02, -187500.02, -187500.02, -187500.02, 176752.78, -0.064, 0.818, 0.594, 11:01:47.473
127, -187500.02, -187500.02, -187500.02, -187500.02, -187500.02, -187500.02, -187500.02, 176721.42, 0.000, 0.000, 0.000, 11:01:47.473
128, -187500.02, -187500.02, -187500.02, -187500.02, -187500.02, -187500.02, -187500.02, 176680.59, 0.000, 0.000, 0.000, 11:01:47.474
129, -187500.02, -187500.02, -187500.02, -187500.02, -187500.02, -187500.02, -187500.02, 176629.63, 0.000, 0.000, 0.000, 11:01:47.474
130, -187500.02, -187500.02, -187500.02, -187500.02, -187500.02, -187500.02, -187500.02, 176574.86, 0.000, 0.000, 0.000, 11:01:47.474
131, -187500.02, -187500.02, -187500.02, -187500.02, -187500.02, -187500.02, -187500.02, 176511.23, 0.000, 0.000, 0.000, 11:01:47.475
132, -187500.02, -187500.02, -187500.02, -187500.02, -187500.02, -187500.02, -187500.02, 176442.31, 0.000, 0.000, 0.000, 11:01:47.475
133, -187500.02, -187500.02, -187500.02, -187500.02, -187500.02, -187500.02, -187500.02, 176381.08, 0.000, 0.000, 0.000, 11:01:47.475
134, -187500.02, -187500.02, -187500.02, -187500.02, -187500.02, -187500.02, -187500.02, 176323.42, 0.000, 0.000, 0.000, 11:01:47.475
135, -187500.02, -187500.02, -187500.02, -187500.02, -187500.02, -187500.02, -187500.02, 176265.25, -0.044, 0.806, 0.596, 11:01:47.476
136, -187500.02, -187500.02, -187500.02, -187500.02, -187500.02, -187500.02, -187500.02, 176205.19, 0.000, 0.000, 0.000, 11:01:47.476
137, -187500.02, -187500.02, -187500.02, -187500.02, -187500.02, -187500.02, -187500.02, 176152.39, 0.000, 0.000, 0.000, 11:01:47.476
138, -187500.02, -187500.02, -187500.02, -187500.02, -187500.02, -187500.02, -187500.02, 176122.94, 0.000, 0.000, 0.000, 11:01:47.477
139, -187500.02, -187500.02, -187500.02, -187500.02, -187500.02, -187500.02, -187500.02, 176102.64, 0.000, 0.000, 0.000, 11:01:47.477
140, -187500.02, -187500.02, -187500.02, -187500.02, -187500.02, -187500.02, -187500.02, 176077.05, 0.000, 0.000, 0.000, 11:01:47.477
141, -187500.02, -187500.02, -187500.02, -187500.02, -187500.02, -187500.02, -187500.02, 176050.53, 0.000, 0.000, 0.000, 11:01:47.478
142, -187500.02, -187500.02, -187500.02, -187500.02, -187500.02, -187500.02, -187500.02, 176017.83, 0.000, 0.000, 0.000, 11:01:47.478
143, -187500.02, -187500.02, -187500.02, -187500.02, -187500.02, -187500.02, -187500.02, 175972.66, 0.000, 0.000, 0.000, 11:01:47.478
144, -187500.02, -187500.02, -187500.02, -187500.02, -187500.02, -187500.02, -187500.02, 175925.66, 0.000, 0.000, 0.000, 11:01:47.478
145, -187500.02, -187500.02, -187500.02, -187500.02, -187500.02, -187500.02, -187500.02, 175879.50, -0.016, 0.804, 0.600, 11:01:47.479
146, -187500.02, -187500.02, -187500.02, -187500.02, -187500.02, -187500.02, -187500.02, 175840.09, 0.000, 0.000, 0.000, 11:01:47.479
147, -187500.02, -187500.02, -187500.02, -187500.02, -187500.02, -187500.02, -187500.02, 175805.20, 0.000, 0.000, 0.000, 11:01:47.479
148, -187500.02, -187500.02, -187500.02, -187500.02, -187500.02, -187500.02, -187500.02, 175771.67, 0.000, 0.000, 0.000, 11:01:47.479
149, -187500.02, -187500.02, -187500.02, -187500.02, -187500.02, -187500.02, -187500.02, 175742.02, 0.000, 0.000, 0.000, 11:01:47.480
150, -187500.02, -187500.02, -187500.02, -187500.02, -187500.02, -187500.02, -187500.02, 175719.11, 0.000, 0.000, 0.000, 11:01:47.480
151, -187500.02, -187500.02, -187500.02, -187500.02, -187500.02, -187500.02, -187500.02, 175703.80, 0.000, 0.000, 0.000, 11:01:47.481
152, -187500.02, -187500.02, -187500.02, -187500.02, -187500.02, -187500.02, -187500.02, 175687.31, 0.000, 0.000, 0.000, 11:01:47.481
153, -187500.02, -187500.02, -187500.02, -187500.02, -187500.02, -187500.02, -187500.02, 175671.98, 0.000, 0.000, 0.000, 11:01:47.481
154, -187500.02, -187500.02, -187500.02, -187500.02, -187500.02, -187500.02, -187500.02, 175663.56, 0.000, 0.000, 0.000, 11:01:47.481
155, -187500.02, -187500.02, -187500.02, -187500.02, -187500.02, -187500.02, -187500.02, 175662.83, -0.024, 0.820, 0.610, 11:01:47.482
156, -187500.02, -187500.02, -187500.02, -187500.02, -187500.02, -187500.02, -187500.02, 175659.77, 0.000, 0.000, 0.000, 11:01:47.482
157, -187500.02, -187500.02, -187500.02, -187500.02, -187500.02, -187500.02, -187500.02, 175655.80, 0.000, 0.000, 0.000, 11:01:47.482
158, -187500.02, -187500.02, -187500.02, -187500.02, -187500.02, -187500.02, -187500.02, 175649.53, 0.000, 0.000, 0.000, 11:01:47.482
159, -187500.02, -187500.02, -187500.02, -187500.02, -187500.02, -187500.02, -187500.02, 175640.36, 0.000, 0.000, 0.000, 11:01:47.483
160, -187500.02, -187500.02, -187500.02, -187500.02, -187500.02, -187500.02, -187500.02, 175629.34, 0.000, 0.000, 0.000, 11:01:47.483
161, -187500.02, -187500.02, -187500.02, -187500.02, -187500.02, -187500.02, -187500.02, 175614.00, 0.000, 0.000, 0.000, 11:01:47.483
162, -187500.02, -187500.02, -187500.02, -187500.02, -187500.02, -187500.02, -187500.02, 175597.38, 0.000, 0.000, 0.000, 11:01:47.483
163, -187500.02, -187500.02, -187500.02, -187500.02, -187500.02, -187500.02, -187500.02, 175576.98, 0.000, 0.000, 0.000, 11:01:47.484
164, -187500.02, -187500.02, -187500.02, -187500.02, -187500.02, -187500.02, -187500.02, 175555.36, 0.000, 0.000, 0.000, 11:01:47.484
165, -187500.02, -187500.02, -187500.02, -187500.02, -187500.02, -187500.02, -187500.02, 175531.70, -0.036, 0.808, 0.620, 11:01:47.484
166, -187500.02, -187500.02, -187500.02, -187500.02, -187500.02, -187500.02, -187500.02, 175506.55, 0.000, 0.000, 0.000, 11:01:47.484
167, -187500.02, -187500.02, -187500.02, -187500.02, -187500.02, -187500.02, -187500.02, 175479.94, 0.000, 0.000, 0.000, 11:01:47.485
168, -187500.02, -187500.02, -187500.02, -187500.02, -187500.02, -187500.02, -187500.02, 175454.27, 0.000, 0.000, 0.000, 11:01:47.485
169, -187500.02, -187500.02, -187500.02, -187500.02, -187500.02, -187500.02, -187500.02, 175424.89, 0.000, 0.000, 0.000, 11:01:47.485
170, -187500.02, -187500.02, -187500.02, -187500.02, -187500.02, -187500.02, -187500.02, 175390.09, 0.000, 0.000, 0.000, 11:01:47.485
171, -187500.02, -187500.02, -187500.02, -187500.02, -187500.02, -187500.02, -187500.02, 175354.97, 0.000, 0.000, 0.000, 11:01:47.486
172, -187500.02, -187500.02, -187500.02, -187500.02, -187500.02, -187500.02, -187500.02, 175318.86, 0.000, 0.000, 0.000, 11:01:47.486
173, -187500.02, -187500.02, -187500.02, -187500.02, -187500.02, -187500.02, -187500.02, 175283.98, 0.000, 0.000, 0.000, 11:01:47.486
174, -187500.02, -187500.02, -187500.02, -187500.02, -187500.02, -187500.02, -187500.02, 175245.78, 0.000, 0.000, 0.000, 11:01:47.486
175, -187500.02, -187500.02, -187500.02, -187500.02, -187500.02, -187500.02, -187500.02, 175208.39, -0.078, 0.798, 0.616, 11:01:47.486
176, -187500.02, -187500.02, -187500.02, -187500.02, -187500.02, -187500.02, -187500.02, 175178.53, 0.000, 0.000, 0.000, 11:01:47.489
177, -187500.02, -187500.02, -187500.02, -187500.02, -187500.02, -187500.02, -187500.02, 175147.73, 0.000, 0.000, 0.000, 11:01:47.489
178, -187500.02, -187500.02, -187500.02, -187500.02, -187500.02, -187500.02, -187500.02, 175117.06, 0.000, 0.000, 0.000, 11:01:47.490
179, -187500.02, -187500.02, -187500.02, -187500.02, -187500.02, -187500.02, -187500.02, 175088.92, 0.000, 0.000, 0.000, 11:01:47.490
180, -187500.02, -187500.02, -187500.02, -187500.02, -187500.02, -187500.02, -187500.02, 175062.77, 0.000, 0.000, 0.000, 11:01:47.490
181, -187500.02, -187500.02, -187500.02, -187500.02, -187500.02, -187500.02, -187500.02, 175035.47, 0.000, 0.000, 0.000, 11:01:47.490
182, -187500.02, -187500.02, -187500.02, -187500.02, -187500.02, -187500.02, -187500.02, 175005.53, 0.000, 0.000, 0.000, 11:01:47.491
183, -187500.02, -187500.02, -187500.02, -187500.02, -187500.02, -187500.02, -187500.02, 174981.25, 0.000, 0.000, 0.000, 11:01:47.491
184, -187500.02, -187500.02, -187500.02, -187500.02, -187500.02, -187500.02, -187500.02, 174960.59, 0.000, 0.000, 0.000, 11:01:47.491
185, -187500.02, -187500.02, -187500.02, -187500.02, -187500.02, -187500.02, -187500.02, 174937.94, -0.108, 0.798, 0.610, 11:01:47.491
186, -187500.02, -187500.02, -187500.02, -187500.02, -187500.02, -187500.02, -187500.02, 174918.22, 0.000, 0.000, 0.000, 11:01:47.492
187, -187500.02, -187500.02, -187500.02, -187500.02, -187500.02, -187500.02, -187500.02, 174899.58, 0.000, 0.000, 0.000, 11:01:47.492
188, -187500.02, -187500.02, -187500.02, -187500.02, -187500.02, -187500.02, -187500.02, 174883.02, 0.000, 0.000, 0.000, 11:01:47.492
189, -187500.02, -187500.02, -187500.02, -187500.02, -187500.02, -187500.02, -187500.02, 174870.25, 0.000, 0.000, 0.000, 11:01:47.492
190, -187500.02, -187500.02, -187500.02, -187500.02, -187500.02, -187500.02, -187500.02, 174855.98, 0.000, 0.000, 0.000, 11:01:47.492
191, -187500.02, -187500.02, -187500.02, -187500.02, -187500.02, -187500.02, -187500.02, 174841.08, 0.000, 0.000, 0.000, 11:01:47.493
192, -187500.02, -187500.02, -187500.02, -187500.02, -187500.02, -187500.02, -187500.02, 174832.45, 0.000, 0.000, 0.000, 11:01:47.493
193, -187500.02, -187500.02, -187500.02, -187500.02, -187500.02, -187500.02, -187500.02, 174822.20, 0.000, 0.000, 0.000, 11:01:47.493
194, -187500.02, -187500.02, -187500.02, -187500.02, -187500.02, -187500.02, -187500.02, 174807.20, 0.000, 0.000, 0.000, 11:01:47.493
195, -187500.02, -187500.02, -187500.02, -187500.02, -187500.02, -187500.02, -187500.02, 174791.66, -0.100, 0.830, 0.600, 11:01:47.494
196, -187500.02, -187500.02, -187500.02, -187500.02, -187500.02, -187500.02, -187500.02, 174779.66, 0.000, 0.000, 0.000, 11:01:47.494
197, -187500.02, -187500.02, -187500.02, -187500.02, -187500.02, -187500.02, -187500.02, 174770.16, 0.000, 0.000, 0.000, 11:01:47.494
198, -187500.02, -187500.02, -187500.02, -187500.02, -187500.02, -187500.02, -187500.02, 174756.95, 0.000, 0.000, 0.000, 11:01:47.494
199, -187500.02, -187500.02, -187500.02, -187500.02, -187500.02, -187500.02, -187500.02, 174744.77, 0.000, 0.000, 0.000, 11:01:47.494
200, -187500.02, -187500.02, -187500.02, -187500.02, -187500.02, -187500.02, -187500.02, 174735.67, 0.000, 0.000, 0.000, 11:01:47.495
201, -187500.02, -187500.02, -187500.02, -187500.02, -187500.02, -187500.02, -187500.02, 174728.36, 0.000, 0.000, 0.000, 11:01:47.495
202, -187500.02, -187500.02, -187500.02, -187500.02, -187500.02, -187500.02, -187500.02, 174724.27, 0.000, 0.000, 0.000, 11:01:47.495
203, -187500.02, -187500.02, -187500.02, -187500.02, -187500.02, -187500.02, -187500.02, 174723.78, 0.000, 0.000, 0.000, 11:01:47.495
204, -187500.02, -187500.02, -187500.02, -187500.02, -187500.02, -187500.02, -187500.02, 174727.52, -0.080, 0.852, 0.588, 11:01:47.495
205, -187500.02, -187500.02, -187500.02, -187500.02, -187500.02, -187500.02, -187500.02, 174737.86, 0.000, 0.000, 0.000, 11:01:47.496
206, -187500.02, -187500.02, -187500.02, -187500.02, -187500.02, -187500.02, -187500.02, 174749.86, 0.000, 0.000, 0.000, 11:01:47.496
207, -187500.02, -187500.02, -187500.02, -187500.02, -187500.02, -187500.02, -187500.02, 174754.45, 0.000, 0.000, 0.000, 11:01:47.496
208, -187500.02, -187500.02, -187500.02, -187500.02, -187500.02, -187500.02, -187500.02, 174739.42, 0.000, 0.000, 0.000, 11:01:47.496
209, -187500.02, -187500.02, -187500.02, -187500.02, -187500.02, -187500.02, -187500.02, 174720.23, 0.000, 0.000, 0.000, 11:01:47.939
210, -187500.02, -187500.02, -187500.02, -187500.02, -187500.02, -187500.02, -187500.02, 174698.34, 0.000, 0.000, 0.000, 11:01:47.940
211, -187500.02, -187500.02, -187500.02, -187500.02, -187500.02, -187500.02, -187500.02, 174678.75, 0.000, 0.000, 0.000, 11:01:47.940
212, -187500.02, -187500.02, -187500.02, -187500.02, -187500.02, -187500.02, -187500.02, 174661.48, 0.000, 0.000, 0.000, 11:01:47.940
213, -187500.02, -187500.02, -187500.02, -187500.02, -187500.02, -187500.02, -187500.02, 174642.58, 0.000, 0.000, 0.000, 11:01:47.940
214, -187500.02, -187500.02, -187500.02, -187500.02, -187500.02, -187500.02, -187500.02, 174621.08, -0.032, 0.850, 0.584, 11:01:47.940
215, -187500.02, -187500.02, -187500.02, -187500.02, -187500.02, -187500.02, -187500.02, 174593.92, 0.000, 0.000, 0.000, 11:01:47.940
216, -187500.02, -187500.02, -187500.02, -187500.02, -187500.02, -187500.02, -187500.02, 174571.45, 0.000, 0.000, 0.000, 11:01:47.940
217, -187500.02, -187500.02, -187500.02, -187500.02, -187500.02, -187500.02, -187500.02, 174551.05, 0.000, 0.000, 0.000, 11:01:47.941
218, -187500.02, -187500.02, -187500.02, -187500.02, -187500.02, -187500.02, -187500.02, 174526.28, 0.000, 0.000, 0.000, 11:01:47.941
219, -187500.02, -187500.02, -187500.02, -187500.02, -187500.02, -187500.02, -187500.02, 174497.78, 0.000, 0.000, 0.000, 11:01:47.941
220, -187500.02, -187500.02, -187500.02, -187500.02, -187500.02, -187500.02, -187500.02, 174464.05, 0.000, 0.000, 0.000, 11:01:47.941
221, -187500.02, -187500.02, -187500.02, -187500.02, -187500.02, -187500.02, -187500.02, 174427.95, 0.000, 0.000, 0.000, 11:01:47.941
222, -187500.02, -187500.02, -187500.02, -187500.02, -187500.02, -187500.02, -187500.02, 174391.92, 0.000, 0.000, 0.000, 11:01:47.941
223, -187500.02, -187500.02, -187500.02, -187500.02, -187500.02, -187500.02, -187500.02, 174350.50, 0.000, 0.000, 0.000, 11:01:47.941
224, -187500.02, -187500.02, -187500.02, -187500.02, -187500.02, -187500.02, -187500.02, 174297.16, -0.018, 0.816, 0.574, 11:01:47.941
225, -187500.02, -187500.02, -187500.02, -187500.02, -187500.02, -187500.02, -187500.02, 174238.72, 0.000, 0.000, 0.000, 11:01:47.942
226, -187500.02, -187500.02, -187500.02, -187500.02, -187500.02, -187500.02, -187500.02, 174164.89, 0.000, 0.000, 0.000, 11:01:47.942
227, -187500.02, -187500.02, -187500.02, -187500.02, -187500.02, -187500.02, -187500.02, 174078.94, 0.000, 0.000, 0.000, 11:01:47.942
228, -187500.02, -187500.02, -187500.02, -187500.02, -187500.02, -187500.02, -187500.02, 174003.20, 0.000, 0.000, 0.000, 11:01:47.942
229, -187500.02, -187500.02, -187500.02, -187500.02, -187500.02, -187500.02, -187500.02, 173947.78, 0.000, 0.000, 0.000, 11:01:47.942
230, -187500.02, -187500.02, -187500.02, -187500.02, -187500.02, -187500.02, -187500.02, 173901.70, 0.000, 0.000, 0.000, 11:01:47.942
231, -187500.02, -187500.02, -187500.02, -187500.02, -187500.02, -187500.02, -187500.02, 173863.70, 0.000, 0.000, 0.000, 11:01:47.942
232, -187500.02, -187500.02, -187500.02, -187500.02, -187500.02, -187500.02, -187500.02, 173829.94, 0.000, 0.000, 0.000, 11:01:47.942
233, -187500.02, -187500.02, -187500.02, -187500.02, -187500.02, -187500.02, -187500.02, 173803.63, 0.000, 0.000, 0.000, 11:01:47.942
234, -187500.02, -187500.02, -187500.02, -187500.02, -187500.02, -187500.02, -187500.02, 173786.08, -0.010, 0.804, 0.566, 11:01:47.942
235, -187500.02, -187500.02, -187500.02, -187500.02, -187500.02, -187500.02, -187500.02, 173766.88, 0.000, 0.000, 0.000, 11:01:47.943
236, -187500.02, -187500.02, -187500.02, -187500.02, -187500.02, -187500.02, -187500.02, 173747.91, 0.000, 0.000, 0.000, 11:01:47.943
237, -187500.02, -187500.02, -187500.02, -187500.02, -187500.02, -187500.02, -187500.02, 173732.30, 0.000, 0.000, 0.000, 11:01:47.943
238, -187500.02, -187500.02, -187500.02, -187500.02, -187500.02, -187500.02, -187500.02, 173722.95, 0.000, 0.000, 0.000, 11:01:47.943
239, -187500.02, -187500.02, -187500.02, -187500.02, -187500.02, -187500.02, -187500.02, 173723.92, 0.000, 0.000, 0.000, 11:01:47.943
240, -187500.02, -187500.02, -187500.02, -187500.02, -187500.02, -187500.02, -187500.02, 173722.98, 0.000, 0.000, 0.000, 11:01:47.943
241, -187500.02, -187500.02, -187500.02, -187500.02, -187500.02, -187500.02, -187500.02, 173713.45, 0.000, 0.000, 0.000, 11:01:47.943
242, -187500.02, -187500.02, -187500.02, -187500.02, -187500.02, -187500.02, -187500.02, 173705.61, 0.000, 0.000, 0.000, 11:01:47.943
243, -187500.02, -187500.02, -187500.02, -187500.02, -187500.02, -187500.02, -187500.02, 173696.47, 0.000, 0.000, 0.000, 11:01:47.943
244, -187500.02, -187500.02, -187500.02, -187500.02, -187500.02, -187500.02, -187500.02, 173690.75, -0.026, 0.820, 0.560, 11:01:47.943
245, -187500.02, -187500.02, -187500.02, -187500.02, -187500.02, -187500.02, -187500.02, 173705.89, 0.000, 0.000, 0.000, 11:01:47.944
246, -187500.02, -187500.02, -187500.02, -187500.02, -187500.02, -187500.02, -187500.02, 173719.23, 0.000, 0.000, 0.000, 11:01:47.944
247, -187500.02, -187500.02, -187500.02, -187500.02, -187500.02, -187500.02, -187500.02, 173721.95, 0.000, 0.000, 0.000, 11:01:47.944
248, -187500.02, -187500.02, -187500.02, -187500.02, -187500.02, -187500.02, -187500.02, 173718.00, 0.000, 0.000, 0.000, 11:01:47.944
249, -187500.02, -187500.02, -187500.02, -187500.02, -187500.02, -187500.02, -187500.02, 173707.72, 0.000, 0.000, 0.000, 11:01:47.944
250, -187500.02, -187500.02, -187500.02, -187500.02, -187500.02, -187500.02, -187500.02, 173693.72, 0.000, 0.000, 0.000, 11:01:47.944
251, -187500.02, -187500.02, -187500.02, -187500.02, -187500.02, -187500.02, -187500.02, 173676.78, 0.000, 0.000, 0.000, 11:01:47.944
252, -187500.02, -187500.02, -187500.02, -187500.02, -187500.02, -187500.02, -187500.02, 173649.84, 0.000, 0.000, 0.000, 11:01:47.944
253, -187500.02, -187500.02, -187500.02, -187500.02, -187500.02, -187500.02, -187500.02, 173623.78, 0.000, 0.000, 0.000, 11:01:47.944
254, -187500.02, -187500.02, -187500.02, -187500.02, -187500.02, -187500.02, -187500.02, 173604.36, -0.016, 0.804, 0.538, 11:01:47.944
255, -187500.02, -187500.02, -187500.02, -187500.02, -187500.02, -187500.02, -187500.02, 173589.59, 0.000, 0.000, 0.000, 11:01:47.945
0, -187500.02, -187500.02, -187500.02, -187500.02, -187500.02, -187500.02, -187500.02, 173573.58, 0.000, 0.000, 0.000, 11:01:47.945
1, -187500.02, -187500.02, -187500.02, -187500.02, -187500.02, -187500.02, -187500.02, 173559.38, 0.000, 0.000, 0.000, 11:01:47.945
2, -187500.02, -187500.02, -187500.02, -187500.02, -187500.02, -187500.02, -187500.02, 173545.83, 0.000, 0.000, 0.000, 11:01:47.945
3, -187500.02, -187500.02, -187500.02, -187500.02, -187500.02, -187500.02, -187500.02, 173532.61, 0.000, 0.000, 0.000, 11:01:47.945
4, -187500.02, -187500.02, -187500.02, -187500.02, -187500.02, -187500.02, -187500.02, 173517.14, 0.000, 0.000, 0.000, 11:01:47.945
5, -187500.02, -187500.02, -187500.02, -187500.02, -187500.02, -187500.02, -187500.02, 173501.63, 0.000, 0.000, 0.000, 11:01:47.945
6, -187500.02, -187500.02, -187500.02, -187500.02, -187500.02, -187500.02, -187500.02, 173485.98, 0.000, 0.000, 0.000, 11:01:47.945
7, -187500.02, -187500.02, -187500.02, -187500.02, -187500.02, -187500.02, -187500.02, 173474.25, 0.000, 0.000, 0.000, 11:01:47.945
8, -187500.02, -187500.02, -187500.02, -187500.02, -187500.02, -187500.02, -187500.02, 173461.53, -0.026, 0.852, 0.540, 11:01:47.945
9, -187500.02, -187500.02, -187500.02, -187500.02, -187500.02, -187500.02, -187500.02, 173447.92, 0.000, 0.000, 0.000, 11:01:47.945
10, -187500.02, -187500.02, -187500.02, -187500.02, -187500.02, -187500.02, -187500.02, 173438.11, 0.000, 0.000, 0.000, 11:01:47.946
11, -187500.02, -187500.02, -187500.02, -187500.02, -187500.02, -187500.02, -187500.02, 173433.02, 0.000, 0.000, 0.000, 11:01:47.946
12, -187500.02, -187500.02, -187500.02, -187500.02, -187500.02, -187500.02, -187500.02, 173432.23, 0.000, 0.000, 0.000, 11:01:47.946
13, -187500.02, -187500.02, -187500.02, -187500.02, -187500.02, -187500.02, -187500.02, 173422.33, 0.000, 0.000, 0.000, 11:01:47.946
14, -187500.02, -187500.02, -187500.02, -187500.02, -187500.02, -187500.02, -187500.02, 173395.06, 0.000, 0.000, 0.000, 11:01:47.946
15, -187500.02, -187500.02, -187500.02, -187500.02, -187500.02, -187500.02, -187500.02, 173372.28, 0.000, 0.000, 0.000, 11:01:47.946
16, -187500.02, -187500.02, -187500.02, -187500.02, -187500.02, -187500.02, -187500.02, 173355.23, 0.000, 0.000, 0.000, 11:01:47.946
17, -187500.02, -187500.02, -187500.02, -187500.02, -187500.02, -187500.02, -187500.02, 173335.22, 0.016, 0.878, 0.554, 11:01:47.946
18, -187500.02, -187500.02, -187500.02, -187500.02, -187500.02, -187500.02, -187500.02, 173319.38, 0.000, 0.000, 0.000, 11:01:47.946
19, -187500.02, -187500.02, -187500.02, -187500.02, -187500.02, -187500.02, -187500.02, 173306.59, 0.000, 0.000, 0.000, 11:01:47.946
20, -187500.02, -187500.02, -187500.02, -187500.02, -187500.02, -187500.02, -187500.02, 173289.67, 0.000, 0.000, 0.000, 11:01:47.947
21, -187500.02, -187500.02, -187500.02, -187500.02, -187500.02, -187500.02, -187500.02, 173271.45, 0.000, 0.000, 0.000, 11:01:47.947
22, -187500.02, -187500.02, -187500.02, -187500.02, -187500.02, -187500.02, -187500.02, 173250.78, 0.000, 0.000, 0.000, 11:01:47.947
23, -187500.02, -187500.02, -187500.02, -187500.02, -187500.02, -187500.02, -187500.02, 173225.48, 0.000, 0.000, 0.000, 11:01:47.947
24, -187500.02, -187500.02, -187500.02, -187500.02, -187500.02, -187500.02, -187500.02, 173199.23, 0.000, 0.000, 0.000, 11:01:47.947
25, -187500.02, -187500.02, -187500.02, -187500.02, -187500.02, -187500.02, -187500.02, 173166.56, 0.000, 0.000, 0.000, 11:01:47.947
26, -187500.02, -187500.02, -187500.02, -187500.02, -187500.02, -187500.02, -187500.02, 173131.44, 0.000, 0.000, 0.000, 11:01:47.947
27, -187500.02, -187500.02, -187500.02, -187500.02, -187500.02, -187500.02, -187500.02, 173098.67, 0.026, 0.872, 0.568, 11:01:47.947
28, -187500.02, -187500.02, -187500.02, -187500.02, -187500.02, -187500.02, -187500.02, 173070.63, 0.000, 0.000, 0.000, 11:01:47.947
29, -187500.02, -187500.02, -187500.02, -187500.02, -187500.02, -187500.02, -187500.02, 173042.70, 0.000, 0.000, 0.000, 11:01:47.947
30, -187500.02, -187500.02, -187500.02, -187500.02, -187500.02, -187500.02, -187500.02, 173017.47, 0.000, 0.000, 0.000, 11:01:47.948
31, -187500.02, -187500.02, -187500.02, -187500.02, -187500.02, -187500.02, -187500.02, 172994.47, 0.000, 0.000, 0.000, 11:01:47.948
32, -187500.02, -187500.02, -187500.02, -187500.02, -187500.02, -187500.02, -187500.02, 172974.25, 0.000, 0.000, 0.000, 11:01:47.948
33, -187500.02, -187500.02, -187500.02, -187500.02, -187500.02, -187500.02, -187500.02, 172955.45, 0.000, 0.000, 0.000, 11:01:47.948
34, -187500.02, -187500.02, -187500.02, -187500.02, -187500.02, -187500.02, -187500.02, 172935.27, 0.000, 0.000, 0.000, 11:01:47.948
35, -187500.02, -187500.02, -187500.02, -187500.02, -187500.02, -187500.02, -187500.02, 172912.00, 0.000, 0.000, 0.000, 11:01:47.948
36, -187500.02, -187500.02, -187500.02, -187500.02, -187500.02, -187500.02, -187500.02, 172896.06, 0.000, 0.000, 0.000, 11:01:47.948
37, -187500.02, -187500.02, -187500.02, -187500.02, -187500.02, -187500.02, -187500.02, 172879.66, 0.054, 0.880, 0.578, 11:01:47.948
38, -187500.02, -187500.02, -187500.02, -187500.02, -187500.02, -187500.02, -187500.02, 172859.22, 0.000, 0.000, 0.000, 11:01:47.948
39, -187500.02, -187500.02, -187500.02, -187500.02, -187500.02, -187500.02, -187500.02, 172836.53, 0.000, 0.000, 0.000, 11:01:47.948
40, -187500.02, -187500.02, -187500.02, -187500.02, -187500.02, -187500.02, -187500.02, 172815.53, 0.000, 0.000, 0.000, 11:01:47.948
41, -187500.02, -187500.02, -187500.02, -187500.02, -187500.02, -187500.02, -187500.02, 172799.50, 0.000, 0.000, 0.000, 11:01:47.949
42, -187500.02, -187500.02, -187500.02, -187500.02, -187500.02, -187500.02, -187500.02, 172785.27, 0.000, 0.000, 0.000, 11:01:47.949
43, -187500.02, -187500.02, -187500.02, -187500.02, -187500.02, -187500.02, -187500.02, 172770.81, 0.000, 0.000, 0.000, 11:01:47.949
44, -187500.02, -187500.02, -187500.02, -187500.02, -187500.02, -187500.02, -187500.02, 172756.81, 0.000, 0.000, 0.000, 11:01:47.949
45, -187500.02, -187500.02, -187500.02, -187500.02, -187500.02, -187500.02, -187500.02, 172744.92, 0.000, 0.000, 0.000, 11:01:47.949
46, -187500.02, -187500.02, -187500.02, -187500.02, -187500.02, -187500.02, -187500.02, 172727.30, 0.000, 0.000, 0.000, 11:01:47.949
47, -187500.02, -187500.02, -187500.02, -187500.02, -187500.02, -187500.02, -187500.02, 172706.30, 0.102, 0.866, 0.602, 11:01:47.949
48, -187500.02, -187500.02, -187500.02, -187500.02, -187500.02, -187500.02, -187500.02, 172686.00, 0.000, 0.000, 0.000, 11:01:47.949
49, -187500.02, -187500.02, -187500.02, -187500.02, -187500.02, -187500.02, -187500.02, 172667.58, 0.000, 0.000, 0.000, 11:01:47.949
50, -187500.02, -187500.02, -187500.02, -187500.02, -187500.02, -187500.02, -187500.02, 172647.91, 0.000, 0.000, 0.000, 11:01:47.949
51, -187500.02, -187500.02, -187500.02, -187500.02, -187500.02, -187500.02, -187500.02, 172622.77, 0.000, 0.000, 0.000, 11:01:47.949
52, -187500.02, -187500.02, -187500.02, -187500.02, -187500.02, -187500.02, -187500.02, 172596.23, 0.000, 0.000, 0.000, 11:01:47.950
53, -187500.02, -187500.02, -187500.02, -187500.02, -187500.02, -187500.02, -187500.02, 172575.98, 0.000, 0.000, 0.000, 11:01:47.950
54, -187500.02, -187500.02, -187500.02, -187500.02, -187500.02, -187500.02, -187500.02, 172557.66, 0.000, 0.000, 0.000, 11:01:47.950
55, -187500.02, -187500.02, -187500.02, -187500.02, -187500.02, -187500.02, -187500.02, 172538.67, 0.000, 0.000, 0.000, 11:01:47.950
56, -187500.02, -187500.02, -187500.02, -187500.02, -187500.02, -187500.02, -187500.02, 172521.58, 0.000, 0.000, 0.000, 11:01:47.950
57, -187500.02, -187500.02, -187500.02, -187500.02, -187500.02, -187500.02, -187500.02, 172505.84, 0.142, 0.842, 0.606, 11:01:47.950
58, -187500.02, -187500.02, -187500.02, -187500.02, -187500.02, -187500.02, -187500.02, 172494.13, 0.000, 0.000, 0.000, 11:01:47.950
59, -187500.02, -187500.02, -187500.02, -187500.02, -187500.02, -187500.02, -187500.02, 172483.95, 0.000, 0.000, 0.000, 11:01:47.950
60, -187500.02, -187500.02, -187500.02, -187500.02, -187500.02, -187500.02, -187500.02, 172472.58, 0.000, 0.000, 0.000, 11:01:47.950
61, -187500.02, -187500.02, -187500.02, -187500.02, -187500.02, -187500.02, -187500.02, 172467.58, 0.000, 0.000, 0.000, 11:01:47.950
62, -187500.02, -187500.02, -187500.02, -187500.02, -187500.02, -187500.02, -187500.02, 172461.41, 0.000, 0.000, 0.000, 11:01:47.951
63, -187500.02, -187500.02, -187500.02, -187500.02, -187500.02, -187500.02, -187500.02, 172454.50, 0.000, 0.000, 0.000, 11:01:47.951
64, -187500.02, -187500.02, -187500.02, -187500.02, -187500.02, -187500.02, -187500.02, 172446.83, 0.000, 0.000, 0.000, 11:01:47.951
65, -187500.02, -187500.02, -187500.02, -187500.02, -187500.02, -187500.02, -187500.02, 172441.72, 0.000, 0.000, 0.000, 11:01:47.951
66, -187500.02, -187500.02, -187500.02, -187500.02, -187500.02, -187500.02, -187500.02, 172433.73, 0.000, 0.000, 0.000, 11:01:47.951
67, -187500.02, -187500.02, -187500.02, -187500.02, -187500.02, -187500.02, -187500.02, 172425.28, 0.146, 0.832, 0.626, 11:01:47.951
68, -187500.02, -187500.02, -187500.02, -187500.02, -187500.02, -187500.02, -187500.02, 172416.92, 0.000, 0.000, 0.000, 11:01:47.951
69, -187500.02, -187500.02, -187500.02, -187500.02, -187500.02, -187500.02, -187500.02, 172408.47, 0.000, 0.000, 0.000, 11:01:47.951
70, -187500.02, -187500.02, -187500.02, -187500.02, -187500.02, -187500.02, -187500.02, 172399.73, 0.000, 0.000, 0.000, 11:01:47.951
71, -187500.02, -187500.02, -187500.02, -187500.02, -187500.02, -187500.02, -187500.02, 172389.50, 0.000, 0.000, 0.000, 11:01:47.951
72, -187500.02, -187500.02, -187500.02, -187500.02, -187500.02, -187500.02, -187500.02, 172383.67, 0.000, 0.000, 0.000, 11:01:47.951
73, -187500.02, -187500.02, -187500.02, -187500.02, -187500.02, -187500.02, -187500.02, 172374.95, 0.000, 0.000, 0.000, 11:01:48.421
74, -187500.02, -187500.02, -187500.02, -187500.02, -187500.02, -187500.02, -187500.02, 172369.83, 0.000, 0.000, 0.000, 11:01:48.421
75, -187500.02, -187500.02, -187500.02, -187500.02, -187500.02, -187500.02, -187500.02, 172367.69, 0.000, 0.000, 0.000, 11:01:48.421
76, -187500.02, -187500.02, -187500.02, -187500.02, -187500.02, -187500.02, -187500.02, 172365.11, 0.000, 0.000, 0.000, 11:01:48.421
77, -187500.02, -187500.02, -187500.02, -187500.02, -187500.02, -187500.02, -187500.02, 172361.17, 0.168, 0.798, 0.630, 11:01:48.421
78, -187500.02, -187500.02, -187500.02, -187500.02, -187500.02, -187500.02, -187500.02, 172363.22, 0.000, 0.000, 0.000, 11:01:48.422
79, -187500.02, -187500.02, -187500.02, -187500.02, -187500.02, -187500.02, -187500.02, 172365.00, 0.000, 0.000, 0.000, 11:01:48.422
80, -187500.02, -187500.02, -187500.02, -187500.02, -187500.02, -187500.02, -187500.02, 172366.14, 0.000, 0.000, 0.000, 11:01:48.422
81, -187500.02, -187500.02, -187500.02, -187500.02, -187500.02, -187500.02, -187500.02, 172363.91, 0.000, 0.000, 0.000, 11:01:48.422
82, -187500.02, -187500.02, -187500.02, -187500.02, -187500.02, -187500.02, -187500.02, 172365.94, 0.000, 0.000, 0.000, 11:01:48.422
83, -187500.02, -187500.02, -187500.02, -187500.02, -187500.02, -187500.02, -187500.02, 172373.83, 0.000, 0.000, 0.000, 11:01:48.423
84, -187500.02, -187500.02, -187500.02, -187500.02, -187500.02, -187500.02, -187500.02, 172380.89, 0.000, 0.000, 0.000, 11:01:48.423
85, -187500.02, -187500.02, -187500.02, -187500.02, -187500.02, -187500.02, -187500.02, 172384.89, 0.000, 0.000, 0.000, 11:01:48.424
86, -187500.02, -187500.02, -187500.02, -187500.02, -187500.02, -187500.02, -187500.02, 172391.31, 0.138, 0.798, 0.638, 11:01:48.424
87, -187500.02, -187500.02, -187500.02, -187500.02, -187500.02, -187500.02, -187500.02, 172398.84, 0.000, 0.000, 0.000, 11:01:48.425
88, -187500.02, -187500.02, -187500.02, -187500.02, -187500.02, -187500.02, -187500.02, 172410.64, 0.000, 0.000, 0.000, 11:01:48.425
89, -187500.02, -187500.02, -187500.02, -187500.02, -187500.02, -187500.02, -187500.02, 172427.81, 0.000, 0.000, 0.000, 11:01:48.425
90, -187500.02, -187500.02, -187500.02, -187500.02, -187500.02, -187500.02, -187500.02, 172464.02, 0.000, 0.000, 0.000, 11:01:48.425
91, -187500.02, -187500.02, -187500.02, -187500.02, -187500.02, -187500.02, -187500.02, 172550.92, 0.000, 0.000, 0.000, 11:01:48.425
92, -187500.02, -187500.02, -187500.02, -187500.02, -187500.02, -187500.02, -187500.02, 172644.11, 0.000, 0.000, 0.000, 11:01:48.425
93, -187500.02, -187500.02, -187500.02, -187500.02, -187500.02, -187500.02, -187500.02, 172684.83, 0.000, 0.000, 0.000, 11:01:48.426
94, -187500.02, -187500.02, -187500.02, -187500.02, -187500.02, -187500.02, -187500.02, 172702.45, 0.000, 0.000, 0.000, 11:01:48.426
95, -187500.02, -187500.02, -187500.02, -187500.02, -187500.02, -187500.02, -187500.02, 172717.20, 0.000, 0.000, 0.000, 11:01:48.426
96, -187500.02, -187500.02, -187500.02, -187500.02, -187500.02, -187500.02, -187500.02, 172731.09, 0.090, 0.788, 0.632, 11:01:48.426
97, -187500.02, -187500.02, -187500.02, -187500.02, -187500.02, -187500.02, -187500.02, 172741.20, 0.000, 0.000, 0.000, 11:01:48.426
98, -187500.02, -187500.02, -187500.02, -187500.02, -187500.02, -187500.02, -187500.02, 172760.72, 0.000, 0.000, 0.000, 11:01:48.426
99, -187500.02, -187500.02, -187500.02, -187500.02, -187500.02, -187500.02, -187500.02, 172788.09, 0.000, 0.000, 0.000, 11:01:48.427
100, -187500.02, -187500.02, -187500.02, -187500.02, -187500.02, -187500.02, -187500.02, 172818.27, 0.000, 0.000, 0.000, 11:01:48.427
101, -187500.02, -187500.02, -187500.02, -187500.02, -187500.02, -187500.02, -187500.02, 172854.17, 0.000, 0.000, 0.000, 11:01:48.427
102, -187500.02, -187500.02, -187500.02, -187500.02, -187500.02, -187500.02, -187500.02, 172886.41, 0.000, 0.000, 0.000, 11:01:48.427
103, -187500.02, -187500.02, -187500.02, -187500.02, -187500.02, -187500.02, -187500.02, 172913.05, 0.000, 0.000, 0.000, 11:01:48.427
104, -187500.02, -187500.02, -187500.02, -187500.02, -187500.02, -187500.02, -187500.02, 172940.89, 0.000, 0.000, 0.000, 11:01:48.428
105, -187500.02, -187500.02, -187500.02, -187500.02, -187500.02, -187500.02, -187500.02, 172974.47, 0.000, 0.000, 0.000, 11:01:48.428
106, -187500.02, -187500.02, -187500.02, -187500.02, -187500.02, -187500.02, -187500.02, 173010.83, 0.022, 0.766, 0.624, 11:01:48.428
107, -187500.02, -187500.02, -187500.02, -187500.02, -187500.02, -187500.02, -187500.02, 173047.69, 0.000, 0.000, 0.000, 11:01:48.428
108, -187500.02, -187500.02, -187500.02, -187500.02, -187500.02, -187500.02, -187500.02, 173080.61, 0.000, 0.000, 0.000, 11:01:48.428
109, -187500.02, -187500.02, -187500.02, -187500.02, -187500.02, -187500.02, -187500.02, 173109.69, 0.000, 0.000, 0.000, 11:01:48.429
110, -187500.02, -187500.02, -187500.02, -187500.02, -187500.02, -187500.02, -187500.02, 173136.66, 0.000, 0.000, 0.000, 11:01:48.429
111, -187500.02, -187500.02, -187500.02, -187500.02, -187500.02, -187500.02, -187500.02, 173158.16, 0.000, 0.000, 0.000, 11:01:48.429
112, -187500.02, -187500.02, -187500.02, -187500.02, -187500.02, -187500.02, -187500.02, 173179.28, 0.000, 0.000, 0.000, 11:01:48.429
113, -187500.02, -187500.02, -187500.02, -187500.02, -187500.02, -187500.02, -187500.02, 173197.81, 0.000, 0.000, 0.000, 11:01:48.429
114, -187500.02, -187500.02, -187500.02, -187500.02, -187500.02, -187500.02, -187500.02, 173211.50, 0.000, 0.000, 0.000, 11:01:48.429
115, -187500.02, -187500.02, -187500.02, -187500.02, -187500.02, -187500.02, -187500.02, 173225.86, 0.000, 0.000, 0.000, 11:01:48.430
116, -187500.02, -187500.02, -187500.02, -187500.02, -187500.02, -187500.02, -187500.02, 173239.48, 0.010, 0.790, 0.624, 11:01:48.430
117, -187500.02, -187500.02, -187500.02, -187500.02, -187500.02, -187500.02, -187500.02, 173247.72, 0.000, 0.000, 0.000, 11:01:48.430
118, -187500.02, -187500.02, -187500.02, -187500.02, -187500.02, -187500.02, -187500.02, 173245.14, 0.000, 0.000, 0.000, 11:01:48.430
119, -187500.02, -187500.02, -187500.02, -187500.02, -187500.02, -187500.02, -187500.02, 173238.52, 0.000, 0.000, 0.000, 11:01:48.430
120, -187500.02, -187500.02, -187500.02, -187500.02, -187500.02, -187500.02, -187500.02, 173234.22, 0.000, 0.000, 0.000, 11:01:48.430
121, -187500.02, -187500.02, -187500.02, -187500.02, -187500.02, -187500.02, -187500.02, 173228.25, 0.000, 0.000, 0.000, 11:01:48.431
